Fp1 Fz F3 F7 FC5 FC1 C3 T7 CP5 CP1 Pz P3 P7 O1 Oz O2 P4 P8 CP6 CP2 FCz C4 T8 FC6 FC2 F4 F8 Fp2 AF7 AF3 Fpz F1 F5 FT7 FC3 C1 C5 CP3 CPz P1 P5 PO7 PO3 POz PO4 PO8 P6 P2 CP4 C6 C2 FC4 FT8 F6 F2 AF4 AF8 Cz AFz
4.0868 1.8595 3.3017 3.3468 0.9519 1.6393 1.8242 3.6675 0.6348 0.6666 0.5194 0.5750 0.8931 1.1941 1.3929 1.1707 0.5400 0.7741 0.7520 0.9764 1.3908 0.9305 1.7146 10.2911 21.4467 11.0202 14.1757 17.5694 4.9387 7.6931 7.2342 7.6197 1.5483 7.9590 3.4001 1.0727 0.6057 0.3570 1.1004 0.6776 0.7463 0.9220 1.1578 1.2661 0.6174 1.3788 0.5435 0.3759 0.6755 1.3666 0.5945 2.3765 10.5268 11.8674 15.0880 19.7521 3.9928 1.5078 7.5933
106.6798 31.2709 44.4734 53.2581 15.9339 27.3062 15.9707 56.8851 6.7816 8.0979 5.6080 5.8662 9.8664 12.7643 15.3903 14.6750 6.3660 10.8058 8.2710 18.9456 22.6999 13.9276 28.7266 171.9566 455.3919 77.7257 236.7541 219.0819 84.8075 129.5950 126.9516 104.8861 19.3378 134.2094 65.3568 20.9838 7.9277 3.8823 16.2376 7.2433 7.0392 11.3100 11.9232 12.7583 7.2636 17.7574 6.6284 4.5317 10.7613 22.4511 8.0813 41.3551 176.4268 194.0012 283.2134 286.8771 64.9481 27.0751 158.5305
1358.0961 593.4550 595.5424 556.5015 261.4424 430.5368 169.5617 601.0814 180.2428 167.8116 174.3810 173.2470 205.8492 346.8280 405.3739 360.8540 174.0223 248.1636 207.1224 268.4397 493.3796 191.4192 443.0750 1654.3447 4143.9170 696.2598 2083.6687 2528.6321 979.4267 1339.7391 1298.6467 1120.8539 315.9259 1154.2742 529.1334 262.3644 157.0556 112.0961 268.7143 213.0157 175.5684 292.0635 396.2541 430.1657 213.1527 402.6619 173.0489 128.5470 191.3919 285.3489 161.0347 528.8414 1696.2772 1979.0425 2763.7700 3099.3193 902.6684 342.4448 1445.9606
2113.2922 1125.5148 1017.7809 935.3039 437.3281 777.3016 282.7824 1054.9855 429.7856 377.6913 445.0523 408.5635 506.6172 782.4720 865.4799 685.0172 425.8290 561.2485 466.1261 460.8951 955.8669 340.8728 886.9105 2056.0007 5403.8457 1212.1208 2587.9426 3788.9795 1126.7568 1943.8545 2044.7919 1588.6903 596.7134 1743.2156 754.4235 429.3421 335.6433 277.7209 544.5721 520.8646 431.2286 736.9852 913.2776 964.8059 425.8041 848.4249 407.3654 322.5111 408.6608 512.9147 323.8214 859.1030 2395.8743 2693.9021 3743.2910 3986.5383 1480.4149 582.3574 2153.8228
1619.3776 961.1259 891.3737 708.8343 345.3370 656.4182 225.1951 743.3575 399.5036 328.4029 397.1487 416.6197 483.8777 682.8416 734.8429 547.1870 427.2534 484.6069 425.5235 362.1864 823.0876 249.7346 624.6627 1262.7548 3745.0771 1226.7230 1719.5281 2784.8223 771.8603 1442.0206 1605.9125 1169.6741 550.5700 1197.0901 601.4858 323.5533 283.9952 268.7739 450.1389 472.4925 435.7841 636.1807 881.1620 900.6878 416.0605 628.4153 406.2920 308.0715 355.2728 382.9400 245.6356 755.6049 1529.3428 1970.3932 2619.5505 3047.6008 1329.4413 435.9796 1800.6467
1100.2585 690.3041 705.9382 504.9410 255.1219 460.3690 152.0076 437.1431 254.2803 235.4513 277.5418 297.5697 296.0263 489.1047 471.1639 389.5355 281.6937 291.4022 273.9752 242.6470 587.0242 157.1131 371.3461 644.6237 2259.6050 913.4290 953.6817 1837.6858 562.0632 944.6450 1083.1495 762.1374 476.6321 717.3736 431.0117 217.6678 182.7401 189.4702 312.3697 332.9492 276.3741 414.8837 653.3923 662.4907 319.7265 381.5131 255.8804 212.6235 230.0355 233.9500 161.9991 576.7167 792.0635 1198.5273 1570.4161 2180.7244 1073.9517 288.3592 1268.3142
730.9626 498.4936 519.9594 359.6878 175.7960 333.4751 101.9344 273.9969 153.9722 160.6599 190.0750 190.9893 180.3065 331.8503 323.5629 280.2344 152.0475 190.7273 170.8826 159.0129 454.4391 105.1237 240.3302 335.7273 1376.3425 732.9724 558.4511 1334.5150 386.0553 642.5392 757.0074 515.7931 363.8756 442.7366 293.9834 145.7761 119.3456 120.7474 210.8831 229.1116 165.7766 269.8324 446.0299 455.9786 207.0142 259.3273 147.2805 132.2148 140.8778 152.4789 118.2309 435.1238 442.3029 784.8466 982.5652 1680.9454 834.9358 202.9169 905.8759
503.0764 363.1481 371.1514 254.2461 121.7921 235.4015 75.0795 180.3136 104.9435 114.9727 134.9105 123.5528 113.1603 224.0197 231.2563 215.6759 99.5192 124.2663 120.0481 110.8087 332.5500 71.6699 170.5811 211.4640 824.8004 560.3340 363.1817 937.8632 294.4023 440.2701 509.3981 351.0991 275.8823 271.1457 195.3570 103.4415 83.0690 83.3733 148.5970 161.4487 100.5096 171.9701 290.7271 310.3844 146.7619 179.5717 97.9479 89.3996 96.9135 103.2363 83.4184 321.3127 280.9677 557.3332 626.1794 1210.7065 637.2999 140.2811 625.8350
339.5447 267.0077 278.3939 186.4910 83.8374 174.2965 51.1429 116.8265 72.2393 79.8761 86.2796 79.5489 79.8536 157.2748 163.6425 165.7670 62.0145 92.5743 82.1069 71.5581 247.7314 51.9658 116.8284 131.0819 515.1617 427.7360 228.8681 660.5394 217.3752 305.7241 356.4111 259.9601 205.5920 167.8949 137.9727 73.0521 55.4777 57.2898 102.0500 103.0975 67.2026 118.5255 195.3351 211.7014 104.1202 135.7110 65.4390 55.2174 62.6115 71.1969 60.5206 239.1279 180.7567 370.6851 430.3032 871.5387 460.3824 101.0584 436.9965
230.7286 204.6437 198.9646 140.4010 62.5338 134.3635 40.4973 82.6057 54.1324 56.8988 61.5510 54.1873 60.9296 115.0728 111.5595 123.3905 44.4794 69.0126 58.4773 51.5657 199.9226 40.4657 84.2595 86.5124 330.0860 308.6367 148.2033 478.3842 163.0969 208.9522 254.4135 195.0269 152.4372 114.5444 98.9913 56.0828 41.3376 41.4490 72.8643 72.0629 48.2122 92.8731 137.4734 145.9471 71.9988 101.8978 47.3973 39.2179 45.4942 47.4951 49.4315 176.9292 115.4358 256.8035 288.8886 622.2479 328.0872 80.8445 297.5536
167.6749 161.5600 146.7126 105.5134 48.6944 112.3225 31.3013 60.8868 39.9869 43.3042 42.6122 38.1602 47.2870 89.4824 90.5603 107.2258 32.4173 54.2726 43.1512 39.5068 164.0988 30.7975 62.4585 65.4229 212.3434 231.9202 112.7742 357.3376 129.8237 150.9378 178.2170 152.4055 114.5333 81.6997 75.6528 43.3218 32.0637 30.1181 55.3172 49.3124 35.4009 72.0279 98.8367 106.2152 58.0731 85.1071 35.4622 28.5858 33.7017 36.4996 39.3238 128.4359 86.4761 188.6609 204.0097 452.9934 241.8362 64.0347 201.7538
123.9607 118.4214 109.4263 74.7497 37.1884 84.1611 26.0461 46.6441 31.0361 33.6337 32.6803 29.2657 36.5505 71.0253 70.9401 92.3385 24.6402 45.8354 36.8286 29.6932 127.1035 25.1403 47.7449 47.9805 149.1311 164.8058 81.5421 262.2359 94.6542 111.2711 127.3221 112.7772 83.8803 59.3683 55.7495 33.4786 26.4824 23.6904 42.5957 37.9137 27.3831 59.4602 76.5698 82.0500 47.6606 72.6307 29.6988 21.0683 26.8575 29.2279 32.2955 97.9242 63.8364 127.9887 141.2878 321.9843 167.2439 50.4050 135.8819
93.4310 96.6391 80.7850 60.1842 28.7751 70.7372 21.8291 36.4349 26.1449 27.2772 26.9791 23.2864 31.1885 58.4458 60.4939 80.5506 19.6398 38.1081 28.9080 24.1297 106.1449 20.5539 38.2928 38.7188 109.6759 127.6558 62.0529 198.1708 77.0731 80.4851 91.1531 88.6695 63.9925 44.3608 42.9174 29.2507 21.4721 19.2811 34.9158 30.6683 22.2162 50.6980 61.6187 66.9305 40.1580 60.5037 23.5316 17.5145 21.1396 23.0853 26.3879 77.0876 48.5974 98.8602 109.2516 232.1082 127.1264 42.9203 94.4454
70.9878 79.3516 68.4313 50.8139 25.6556 59.3527 18.0810 29.8186 21.1142 22.9357 22.6976 19.7979 25.5635 50.4069 50.9346 73.1365 17.1318 32.0969 25.4535 20.5298 90.5001 17.2180 32.8387 32.2528 85.6634 100.8225 48.9583 149.4395 64.0877 61.2884 67.6686 73.0402 55.0785 35.3361 37.2121 24.9245 17.5928 15.8318 29.2020 25.8848 18.5909 43.1932 52.8026 56.7779 35.3624 53.6844 20.0633 15.2147 18.2089 20.5909 23.4025 62.4627 40.3693 76.3564 85.5890 168.0474 95.7684 37.0412 69.4728
52.5984 66.7840 56.8471 42.3013 21.8573 52.8420 16.1176 26.3775 18.4757 19.7618 20.0713 18.1597 23.0185 46.1925 45.5872 69.0184 14.9548 29.0983 22.0391 18.1029 79.9496 15.2763 28.3578 27.8336 68.1888 85.8519 39.4979 109.7163 50.0137 47.8603 52.1367 62.8611 45.0516 30.3095 31.5346 21.6919 16.0533 14.3051 25.4112 23.1567 16.1198 40.9767 48.8123 49.8549 32.3440 48.9439 17.6076 13.6030 15.9221 17.3793 21.0143 53.2229 35.0108 61.4921 69.6716 117.5175 70.4314 33.6892 52.7756
42.1916 59.9758 47.6053 36.3595 18.5361 45.6692 14.7435 21.8854 16.5975 17.9796 17.5365 15.8976 21.0474 43.5590 43.5350 66.9751 13.6086 26.3433 19.2520 16.7624 70.2677 13.8973 24.6266 24.1295 59.0262 72.8054 31.6727 80.6493 41.7126 40.4956 42.2438 55.7280 36.7691 25.8817 26.6059 20.2230 14.2416 12.6329 23.3267 19.7945 15.0945 38.4445 43.7223 45.8875 31.6061 46.9919 15.9660 12.3166 14.4472 15.2750 20.0167 43.6586 29.4266 50.2409 62.6630 82.6630 52.5002 31.1676 44.2440
35.5199 52.4819 41.5431 30.8765 16.3034 41.7443 13.1078 19.5942 14.4932 17.2145 16.4048 13.9990 19.6040 38.3647 41.2996 63.9232 11.6655 23.5647 17.4586 15.4579 62.4019 12.3305 22.5638 20.9637 48.5677 63.5727 26.0110 61.0243 34.9610 34.8124 33.7912 49.6994 31.4449 22.4262 24.2117 18.5489 12.6184 11.6122 22.3270 18.4114 13.1645 34.5578 38.2371 40.9263 28.0198 42.6732 13.8254 11.1915 12.6424 14.0197 17.9151 36.2647 24.5435 43.5867 53.0851 63.2202 41.3589 28.7103 35.6184
29.0299 49.1640 37.8236 27.7662 14.7295 37.2700 12.0112 17.1298 13.3445 16.1417 15.4907 13.1909 18.2189 36.9470 39.5040 63.2467 10.8014 22.6528 15.9550 14.8305 57.4318 11.2410 19.2156 18.9708 46.9214 58.0664 22.2587 50.7576 30.2220 30.9292 28.1201 45.6468 28.8138 19.2889 21.8102 17.4230 11.4473 10.4698 21.4865 17.4860 11.9193 34.8219 37.3243 39.3961 27.9804 40.1942 12.6217 10.5838 11.7721 12.5268 16.4613 34.3370 20.4403 38.5038 50.9363 54.6470 34.4020 26.6326 31.0565
24.9726 44.0999 32.8593 25.6963 13.4441 33.8202 11.4677 15.4434 12.3677 15.4271 13.7234 11.8738 16.8977 33.8732 39.1566 61.5798 9.6631 21.2771 14.4456 13.7224 51.7477 10.2185 17.5259 16.9899 41.6187 51.4800 20.5372 44.6636 26.0942 26.1371 26.2678 40.1451 26.1186 17.7533 19.6278 16.5106 10.4155 10.1798 20.1165 15.4465 11.1002 31.7429 33.3927 36.0920 25.9341 38.3587 11.5282 9.4622 10.9486 11.1767 15.1013 29.9666 18.3134 35.2139 44.5203 51.4853 30.8759 24.2897 27.1710
20.8733 41.5290 29.3098 22.1190 11.8047 32.0820 10.7689 13.9581 11.3423 14.3334 12.4556 10.7317 16.8915 32.5172 39.4838 60.1669 8.6543 20.3218 13.2763 12.5514 48.8436 9.0354 15.9080 15.4129 37.7289 44.2440 17.8963 40.3091 21.8655 22.3889 23.3873 37.8082 22.2574 15.8016 17.8735 15.7395 9.5887 9.3760 18.8033 14.0399 10.3347 31.5554 31.7145 34.4396 24.5651 35.5764 10.6432 8.5020 9.9819 10.2194 13.7494 25.8829 15.9029 31.0836 39.1645 52.7216 28.7808 23.4097 25.4216
18.4092 35.6270 25.9099 19.7758 10.7344 27.8283 9.9053 12.6371 10.5828 13.3618 11.9781 9.8414 16.4652 30.6050 39.6938 63.0233 7.9842 19.9213 12.4985 11.6544 43.0301 8.4240 14.7590 13.7412 34.1251 37.1628 15.2037 36.0960 19.1829 19.2113 21.3927 32.2938 19.8853 14.1910 16.1046 14.6450 8.7350 8.6871 17.7541 13.2224 9.7223 29.7108 29.1762 32.0197 23.9013 35.6106 10.3172 8.0671 9.2206 8.9018 12.7744 23.7610 14.1766 26.1829 33.4569 50.3790 25.5747 21.7769 22.5527
16.4208 31.9525 24.6113 18.7239 9.9887 25.5283 9.3357 12.0299 9.8092 12.8345 11.1735 9.2184 15.9230 29.5935 40.4214 62.5557 7.5125 19.2669 12.0017 11.2627 38.2818 7.7765 13.9037 12.4092 30.3867 32.8217 13.9792 32.0830 18.1310 17.7428 18.6813 29.9135 18.6780 13.3444 15.1732 13.9815 8.1143 8.2768 17.1553 12.2926 9.1837 29.4951 27.6148 31.3375 24.1158 34.2801 9.7337 7.5742 8.5219 8.2773 11.7044 21.6772 12.4833 23.4405 29.6398 47.2408 23.2120 20.2841 20.5260
14.3158 28.6375 21.4184 17.4540 9.0931 22.0793 8.4421 10.7207 8.6812 11.2897 9.8537 8.2066 15.7035 28.9378 42.0938 62.5462 6.7637 19.1102 11.1020 9.7324 34.5594 7.2299 13.3371 10.9704 27.7361 29.1213 12.9132 28.5854 16.6069 15.6010 16.3122 26.0779 16.9396 12.3887 13.1611 12.1488 7.2575 7.3430 14.7625 10.9372 8.4301 28.8475 26.2253 30.4294 23.5481 32.7738 9.2474 6.7142 7.7010 7.7850 10.4302 19.2568 12.0990 20.3820 26.5772 44.4246 20.9975 17.6583 18.5636
13.6248 25.7040 19.9151 15.7449 8.3275 19.7582 7.6256 10.1775 7.9014 10.0921 9.3685 7.7376 15.2543 28.8583 42.9095 61.7197 6.4523 19.0368 10.2409 9.1869 30.6470 6.5470 12.4087 10.1690 24.8663 25.7972 11.6486 26.8325 14.9111 14.6020 15.9489 23.6549 15.5604 11.5162 12.0918 10.8821 6.6375 6.4920 13.4471 10.3919 7.9099 28.0175 26.0541 30.4754 22.8484 32.7654 9.0799 6.4722 7.1617 7.0762 9.5502 17.0187 10.8220 18.3641 23.4698 42.2442 19.7280 15.7268 17.2344
11.4983 22.9434 18.0728 14.7371 7.5316 18.7077 7.1482 9.3402 7.4072 8.9262 8.5691 7.3582 15.0863 27.6508 43.6443 62.1236 6.2273 18.6741 9.8438 8.4273 28.6254 6.0222 11.4191 9.2870 22.2596 22.7554 10.6779 24.2798 13.5444 12.5279 14.1029 21.5357 14.2985 10.7538 10.8582 9.9613 6.0243 6.2577 11.7849 9.6372 7.5920 26.8834 25.2399 30.2641 23.0615 31.6773 9.0731 6.0161 6.7622 6.3455 8.7902 15.2471 9.9646 16.5252 20.7292 39.0455 17.7487 14.5889 15.3767
10.9164 21.0088 15.6106 12.8831 6.9857 16.9089 6.6375 9.1899 7.2717 8.1878 7.8654 6.8912 14.8405 27.4125 43.8792 60.0602 5.6121 18.1684 9.4610 7.3079 25.5578 5.5904 11.1034 8.5194 20.3318 20.8412 9.4327 21.8575 12.2599 11.2390 13.4365 19.0133 12.4891 10.0165 9.9958 9.1817 5.9657 5.8186 10.6155 8.9314 7.3616 25.8585 24.1884 28.8780 21.7520 29.9048 8.6198 5.3505 6.0708 6.1732 7.8228 13.9999 9.3152 14.6253 19.2636 34.6054 15.7688 13.1326 13.8265
9.9964 18.3217 15.0271 12.2536 6.6478 14.7990 5.9305 8.4862 6.6827 7.3032 7.4530 6.5729 14.3868 25.9894 41.3038 55.2294 5.2120 17.8070 8.8280 7.0051 22.9798 5.1016 10.3833 7.6730 18.4976 18.5417 8.4823 19.4520 11.3311 10.4942 12.5245 16.8532 12.1888 9.6061 9.1449 8.0891 5.3656 5.2097 9.5959 8.4892 7.0356 24.9377 23.1435 27.8810 20.4727 28.3032 8.0978 5.1467 5.6104 5.8519 7.3515 12.6786 8.6498 13.0510 17.0418 30.2481 14.1965 11.7361 12.4088
9.4059 18.0250 14.1904 11.3568 6.3059 14.1994 5.7502 8.0999 6.4645 6.9789 7.1745 6.2701 13.9520 26.0992 41.2393 55.0540 5.2608 16.9879 8.4450 6.6340 22.0080 4.8713 10.1543 7.1757 17.1219 17.1712 8.0593 17.0775 10.7343 9.8891 11.3938 16.6483 11.2234 9.0451 8.6699 7.2528 5.1196 5.0030 9.0547 8.0937 6.7985 23.8762 22.5237 26.8540 20.2678 29.2877 8.1078 4.9716 5.6053 5.4141 6.5120 11.7365 8.4091 12.2619 16.1194 25.4769 12.5314 10.5264 11.4459
8.9922 15.8143 12.9731 10.3363 5.4999 12.8384 5.3858 7.6759 6.0981 6.2857 6.6818 5.9414 12.7981 24.5890 37.9148 52.0982 5.1034 16.6780 8.5086 6.0064 19.5362 4.5037 9.7808 6.6587 15.3024 16.2308 7.6960 15.2296 10.0262 9.2523 10.7672 14.8371 10.1281 8.2664 7.8434 6.8021 4.8342 4.5867 8.2935 7.5434 6.3704 22.1965 21.5008 24.7299 18.6762 27.1077 7.8735 4.7270 5.2416 5.2779 5.9699 10.9010 7.9359 11.6534 14.6938 21.8517 11.4400 9.7389 10.0865
8.3693 15.3062 13.0172 9.7463 5.3574 12.5253 4.9753 7.6023 5.8038 6.0852 6.6725 5.7747 12.5002 23.8827 35.7353 48.1100 4.7433 15.5901 8.0709 5.6958 18.8281 4.4564 9.8331 6.5121 15.0586 15.1933 7.2673 13.9089 9.4844 8.6685 10.1181 14.5276 10.1290 7.8018 7.8927 6.2238 4.5444 4.2541 7.9050 7.5565 6.1239 21.3491 20.7063 23.6146 17.4202 26.3062 7.3214 4.6065 4.9271 5.3876 5.8436 10.6002 7.8320 11.0547 13.9154 19.0693 10.4475 9.0509 9.1870
8.2099 14.5632 12.4287 9.0815 5.1956 11.8955 4.6174 7.0320 5.6230 5.6053 6.2396 5.6087 11.7193 22.4369 33.6182 45.7656 4.6207 14.0890 7.7974 5.3053 17.9260 4.2875 8.9610 6.1281 14.3179 14.6989 6.8013 12.8761 8.7436 8.3979 9.9854 13.7284 9.4825 7.3150 7.5861 5.6913 4.3457 3.9967 7.1860 7.1056 6.0867 20.4939 19.3128 22.5276 17.1943 23.8439 6.8779 4.4008 4.7928 5.0438 5.4824 10.3941 7.1838 10.2704 13.4788 16.2299 9.4866 8.3875 8.6001
7.9261 15.1525 12.1136 8.9395 5.1857 12.0321 4.5771 6.5879 5.3669 5.4111 5.9730 5.4515 11.0256 21.5057 30.9312 42.5303 4.3607 13.8941 7.4947 5.0060 17.7761 3.9234 8.5407 5.7685 14.2809 13.9628 6.1790 12.2827 8.2312 8.2723 9.6173 13.9780 9.3737 7.1839 7.7041 5.4720 4.1136 3.9420 6.9242 6.9026 5.7611 19.1443 18.7351 21.0898 15.9529 22.9580 6.8731 4.0943 4.3692 4.6744 5.0243 9.9527 6.7594 9.4169 13.9443 15.1449 8.9938 7.8175 8.6900
7.5214 15.3983 12.6841 8.4912 5.1065 12.3548 4.6389 6.7117 5.5869 5.4710 5.9799 5.4283 10.3032 21.0616 27.1084 38.7460 4.3013 12.7787 7.3451 4.7443 17.7458 4.1336 8.2429 5.6949 14.8697 14.0846 6.0323 12.0005 7.7891 8.1670 9.6197 14.7392 9.2024 6.8513 8.0389 5.4362 4.1684 3.9552 6.8938 6.7675 5.8000 18.3206 18.3817 19.4704 14.8802 22.2668 6.4158 4.1102 4.2375 4.7304 4.8972 10.5543 6.3410 9.3292 14.4017 14.9905 8.6597 7.5927 8.7062
7.2666 15.3683 12.5504 8.1570 4.9736 11.8964 4.3181 6.1318 5.3098 5.0351 5.7360 5.2388 9.9758 20.0369 26.4649 37.1849 4.2748 12.2199 7.3036 4.4344 17.8508 4.0203 7.9980 5.4174 15.5772 13.1449 5.7443 11.2024 7.4619 8.1686 9.0842 14.5682 8.9634 6.4512 7.8143 4.8347 3.9334 3.7226 6.2937 6.4968 5.6623 17.2584 17.7797 19.3876 14.4727 21.1078 6.3923 4.0017 4.2319 4.5493 4.8015 10.4938 6.2922 8.4989 14.4000 14.0383 7.9921 7.0926 8.3668
7.0352 15.7088 12.9760 7.6105 4.9396 11.8915 4.3444 6.0612 5.2842 5.0499 5.7376 5.2641 9.8830 18.4881 22.9923 32.9303 4.3798 11.2199 7.1997 4.3769 17.0964 4.1783 7.7961 5.1197 15.6716 13.1386 5.2503 11.2318 6.9609 8.0085 9.3916 14.8469 8.9481 6.2255 8.1786 4.6275 3.9392 3.6465 6.2756 6.5036 5.8685 16.5440 16.6525 17.6757 12.8505 19.6793 6.1738 4.0061 4.3314 4.4533 4.5884 10.4756 5.9373 7.9035 15.2178 14.1709 7.7603 6.4956 8.4833
7.0199 17.2596 14.4164 7.6268 5.1992 13.0076 4.2419 6.0480 5.1928 5.0004 5.7535 5.4833 9.5738 17.6429 21.9612 31.5818 4.4117 10.7967 6.7907 4.1188 18.3777 4.1273 7.4454 5.1788 17.2237 13.3643 5.0629 11.2751 6.8106 8.4755 9.5882 16.6951 9.2580 6.2441 9.0968 4.5846 3.8751 3.4720 6.0946 6.5918 6.0891 16.1735 16.4923 17.4521 12.7744 18.1801 6.0463 3.9567 4.0938 4.3350 4.5382 11.1269 5.7329 7.8104 16.5252 14.4539 7.3731 6.4737 8.8782
6.7151 16.9324 14.3364 7.4282 5.1188 12.5173 4.0780 5.9542 5.1516 4.7254 5.3361 5.4325 9.2095 18.0104 20.4088 29.9577 4.2598 9.9285 6.8550 3.8403 17.8786 4.0322 7.6557 5.3458 17.3538 12.8252 4.9004 11.0207 6.3971 8.5054 9.1476 16.5463 9.0660 6.3730 8.8141 4.3350 3.8706 3.3724 5.7699 6.2145 6.1045 16.1248 16.9364 16.9762 12.3600 18.0823 5.6972 3.7040 4.0019 4.4378 4.2981 11.3102 5.9363 7.3604 16.3254 15.1100 7.2399 6.0344 8.8717
6.6761 18.3181 14.9936 6.9943 5.0329 13.0208 4.0001 5.8260 5.1387 4.8496 5.3080 5.4933 8.9861 17.2002 19.2517 27.4509 4.2510 9.4640 6.4550 3.8839 18.4414 3.9700 7.3122 5.3776 18.7566 13.3395 4.8621 11.4075 6.2422 8.9704 9.2227 17.8891 8.9783 5.9437 9.2131 4.1864 3.7483 3.4304 5.8387 6.2053 6.1659 15.5268 16.3617 16.5305 11.6164 16.7917 5.5359 3.7319 3.8750 4.3122 4.2004 12.1874 5.8425 7.1380 17.8689 16.5710 7.4080 5.7747 9.9121
6.2124 18.8488 15.3143 6.7463 5.1927 12.8205 3.9943 5.7048 4.8750 4.6400 5.0989 5.2538 8.3982 15.8121 17.0134 25.4304 4.2172 8.8791 5.9904 3.6106 18.2070 3.9387 6.7971 5.3150 19.0865 13.6433 4.6174 11.1747 5.8545 8.8368 8.6385 18.0964 9.1237 5.8381 9.4232 4.0885 3.6265 3.2895 5.4611 5.9657 5.7441 14.4657 15.7812 15.3205 10.6461 15.8892 5.2014 3.6802 3.7117 4.0065 4.0655 12.5817 5.4862 6.9581 18.7899 17.4169 7.3962 5.4352 10.2287
6.0108 18.7172 15.1755 6.5704 4.9495 12.4925 3.8620 5.4233 4.6040 4.4897 5.1084 5.3846 8.2517 15.2623 15.8091 23.5313 4.2308 8.5033 5.6892 3.4725 17.5139 3.8883 6.6644 5.0865 18.6369 13.1446 4.4125 10.7499 5.7166 8.8636 8.2436 18.0949 8.8168 5.6791 9.1479 3.8289 3.4859 3.1976 5.1830 6.0633 5.8156 14.4005 15.4176 15.0954 10.4269 15.2173 5.0059 3.6888 3.6655 3.8853 3.8353 12.4166 5.3776 6.5095 18.3585 17.3893 7.2573 4.9962 10.2299
5.8470 17.6961 14.7608 6.2819 4.8580 11.9350 3.6633 5.2281 4.4323 4.0847 4.6351 5.1221 8.0051 14.3545 14.4983 22.1197 4.1091 7.9651 5.5543 3.4137 16.7989 3.7213 6.1882 4.8818 18.0063 13.3937 4.1440 10.4965 5.3955 8.5700 8.2855 17.0988 8.5555 5.5024 8.8708 3.7461 3.3717 2.9287 5.0199 5.4735 5.6750 13.8714 14.4460 13.8019 9.9054 14.6682 4.9151 3.4752 3.5450 3.6498 3.6480 12.4508 4.9172 6.3519 17.9979 17.4169 6.9993 5.0195 10.0597
5.7160 16.5961 14.4252 6.0589 4.7830 11.3910 3.6693 4.8344 4.3682 3.9092 4.5718 5.1414 7.8012 13.5188 13.5752 21.2659 4.0958 7.9041 5.1014 3.2563 15.6467 3.7123 5.6155 4.6169 17.0268 12.7998 3.8053 10.1728 5.3305 8.5870 7.7815 16.3862 8.4411 5.0510 8.5544 3.7178 3.3232 2.9202 4.6789 5.3766 5.6784 13.4440 13.8885 13.2789 9.6756 14.0113 4.6093 3.6006 3.5109 3.3544 3.5747 12.0721 4.4163 6.0990 16.8682 17.2582 6.9067 4.7876 9.8577
5.0968 15.3146 13.7383 5.7610 4.5711 10.5339 3.6186 4.4991 4.2141 3.8172 4.5218 4.9859 7.3335 12.6202 12.4764 19.5023 4.1448 7.2384 5.0624 3.1892 14.6620 3.6867 5.3336 4.4054 16.2816 12.4302 3.5868 9.6687 4.8780 7.9039 7.1275 15.0880 8.1298 4.8187 8.1740 3.5079 3.1821 2.9699 4.4752 5.2431 5.4379 12.7018 13.2907 12.7817 9.1315 12.8205 4.4118 3.6344 3.5835 3.3420 3.5352 11.8245 4.1430 5.8750 15.9150 16.4363 6.6607 4.4467 8.9562
4.8172 12.9058 11.6360 5.4889 4.4236 9.1272 3.5794 4.6240 4.2833 3.5190 4.1891 4.6889 7.0780 12.2172 12.3315 18.8073 3.8957 7.0257 4.7005 3.0512 12.5756 3.6146 4.9815 4.2123 13.9722 10.9594 3.4926 9.3246 4.5164 6.9672 6.9307 12.7319 7.3081 4.8919 7.1742 3.2709 3.2790 2.9534 4.1855 4.9016 5.1174 12.0025 12.4808 12.0949 8.6144 12.2460 4.2242 3.3653 3.5861 3.0859 3.2650 10.7024 3.9552 5.4946 13.4899 15.7534 6.2053 4.1721 8.3878
4.4276 11.2333 10.6277 5.1705 4.2497 8.2569 3.3759 4.2718 4.0652 3.3654 4.0490 4.5002 6.7909 11.4877 11.0119 17.1825 3.7071 6.6928 4.6797 2.8257 11.2775 3.3391 4.8356 4.0910 12.4301 10.0619 3.2649 8.6539 4.1623 6.4324 6.1788 11.2472 6.9355 4.5324 6.6457 3.0861 3.1230 2.8848 3.9347 4.7930 4.8460 11.5242 11.8474 11.1951 7.8919 11.8000 3.9756 3.2172 3.4464 3.0549 3.0762 9.7961 3.7178 5.1700 11.8906 14.8719 5.9067 4.0610 7.6361
4.0194 9.1373 9.2786 4.9731 3.8932 7.1992 3.2478 4.1632 3.7932 3.1592 3.9353 4.2835 6.5231 11.0019 10.5027 16.7568 3.5534 6.2816 4.4010 2.7222 9.4943 3.1881 4.5141 3.7839 10.5232 8.9537 3.1414 7.9423 3.8715 5.5914 5.5564 9.4365 6.2499 4.4562 6.0159 2.9240 2.9023 2.7469 3.7483 4.6052 4.5707 11.4066 11.3919 10.7935 7.6994 11.1608 3.8718 3.1314 3.2889 2.9121 2.8955 8.8547 3.5608 4.8471 9.8508 13.3426 5.5680 3.7720 6.4920
3.6163 8.0681 8.0170 4.7176 3.6444 6.3475 3.1110 4.0647 3.6689 2.9396 3.6556 3.8541 6.0408 10.2517 9.8078 15.4896 3.3003 5.9659 4.2507 2.7834 8.6522 2.9188 4.2810 3.4922 9.3904 8.2082 2.9772 6.9888 3.6290 4.9296 4.8410 8.1584 5.6985 4.3117 5.2389 2.7828 2.8709 2.6640 3.5766 4.2149 4.1604 10.5325 10.3803 9.9132 7.0549 10.7334 3.6760 2.9387 3.2447 2.7814 2.7308 8.0011 3.3487 4.5323 8.7370 11.6515 5.0133 3.6135 5.7506
3.3489 7.7517 7.4891 4.6958 3.5106 5.8674 3.1159 3.9192 3.6302 2.9980 3.4324 3.7361 5.8248 9.7861 9.4968 14.8260 3.3242 5.7436 4.0926 2.7203 7.8146 2.7735 4.0776 3.2586 8.1185 7.3780 2.8192 6.1367 3.4023 4.6668 4.5622 7.8908 5.4467 4.2058 4.7843 2.7295 2.8207 2.8373 3.5071 3.9938 4.0060 9.9181 9.7492 9.2736 6.7084 10.0793 3.5714 2.8448 3.2696 2.6792 2.5325 6.9822 3.2468 4.1728 7.9965 9.7696 4.3562 3.3997 5.3295
3.1784 7.0620 6.7270 4.3722 3.1813 5.6945 3.0533 3.6821 3.5212 2.7616 3.3683 3.3752 5.5618 9.2377 9.0639 14.3610 3.0911 5.6557 3.9096 2.6322 7.4695 2.6729 3.9856 3.0885 7.4086 6.6416 2.6728 5.4186 3.1840 4.2506 4.2823 7.2605 4.8645 3.9011 4.3937 2.6158 2.6884 2.8562 3.1851 3.7814 3.6597 9.5219 8.9126 8.6783 6.3628 9.8047 3.4512 2.7236 3.2204 2.6125 2.4759 6.2700 3.1319 3.9829 7.0135 7.9912 3.8190 3.2237 4.7480
2.9782 6.1242 6.0516 4.2996 3.0549 4.9143 3.0130 3.5534 3.2365 2.7642 3.1697 3.2673 5.1675 8.7976 8.0448 13.1924 2.9110 5.3252 3.7197 2.5920 6.4704 2.5685 3.7144 2.9407 6.4186 6.0548 2.5122 5.0181 3.0726 3.9338 4.0212 6.2749 4.6224 3.7883 3.9601 2.3997 2.5866 2.7350 3.2052 3.5735 3.4444 9.1565 8.4818 7.7922 5.7817 9.5572 3.2038 2.6266 3.1646 2.4404 2.2708 5.5427 2.9273 3.6595 6.3147 7.0973 3.4633 2.9378 4.4140
2.8681 5.8078 5.4724 4.1008 2.7881 4.5380 2.7519 3.3388 2.9639 2.5455 2.9024 2.9450 4.8444 8.4276 7.7259 13.2237 2.7186 4.9941 3.5666 2.5755 6.1398 2.2802 3.5465 2.8470 5.7461 5.6938 2.3894 4.4257 3.0087 3.6929 3.6797 5.7945 4.2881 3.6528 3.5000 2.2797 2.4130 2.4523 3.0496 3.2859 3.1019 8.7338 8.0362 7.3344 5.6478 9.0667 3.0135 2.4294 2.9261 2.3553 2.1363 5.0504 2.8262 3.5420 5.8741 6.2458 3.0858 2.9023 4.0454
2.8344 5.7355 5.5999 4.0239 2.7870 4.3851 2.6095 3.2812 2.8332 2.3642 2.5777 2.6923 4.4569 7.6625 7.0021 12.1590 2.4264 4.5731 3.2933 2.3315 5.9430 2.1630 3.4115 2.8332 5.6845 5.5249 2.4804 4.2348 2.9808 3.7446 3.5484 5.8697 4.3765 3.5183 3.4780 2.0871 2.3092 2.3890 2.7212 2.9486 2.8337 8.1334 7.1839 6.5939 5.2291 8.3163 2.7592 2.1338 2.7395 2.2022 2.0227 4.8515 2.7983 3.5464 5.8327 6.0647 3.1369 2.6275 3.9975
2.7790 5.4163 5.4776 3.8219 2.6625 4.4635 2.5034 3.0763 2.6188 2.2636 2.4877 2.5310 4.2295 7.1365 6.5986 11.1994 2.2058 4.4026 3.0879 2.1959 5.7859 2.0617 3.3276 2.6921 5.1246 5.3572 2.4190 4.0166 2.9887 3.6009 3.3689 5.6330 4.2793 3.2363 3.4253 2.1110 2.1313 2.1556 2.6082 2.8772 2.6542 7.3848 6.7829 6.3744 4.8875 7.9831 2.5637 1.9907 2.5817 2.1238 1.9618 4.3619 2.7509 3.5050 5.4084 5.7328 2.9658 2.6417 3.7606
2.8264 5.2865 5.4254 3.8967 2.6804 4.2458 2.3216 3.0353 2.4634 2.1323 2.3091 2.2810 3.8684 6.9737 6.4999 10.9868 2.0508 4.1520 2.8303 2.0186 5.5750 1.8455 3.0789 2.6874 4.9230 5.2984 2.4053 4.0483 3.0036 3.8078 3.2918 5.5348 4.3318 3.2586 3.2846 1.9552 2.1312 1.9735 2.4923 2.6287 2.3448 7.0446 6.3265 6.0271 4.7198 7.5291 2.4538 1.8242 2.2615 1.9939 1.8264 4.0933 2.5392 3.5561 5.3011 6.0854 3.1098 2.5374 3.8716
2.9609 5.3200 5.6495 3.9596 2.8076 4.0060 2.2182 2.8820 2.2993 1.9603 2.1806 2.2370 3.5948 6.4737 6.0183 10.2043 1.8995 4.0680 2.7753 1.8855 5.2100 1.7922 2.9360 2.6748 4.7743 5.6476 2.4674 4.2547 3.1451 4.0475 3.4588 5.6229 4.5973 3.1410 3.3351 1.7780 2.0381 1.8376 2.2935 2.5303 2.2836 6.5775 6.1593 5.7197 4.3989 7.1580 2.3131 1.7008 2.1549 1.9900 1.6612 4.1068 2.4793 3.7805 5.5088 6.3999 3.2363 2.2451 4.1235
3.1101 5.2919 5.8048 4.0286 2.7841 3.8908 2.1353 2.7395 2.2210 1.8970 2.1269 2.1171 3.5306 6.1698 5.7326 10.1322 1.8227 3.7784 2.5851 1.7634 5.0619 1.6623 2.8933 2.7246 5.0143 6.4427 2.5805 4.6020 3.4309 4.3789 3.5883 5.5302 4.8251 2.9861 3.3657 1.6852 1.9795 1.7670 2.2003 2.4111 2.1850 6.4202 5.8234 5.4089 4.4275 6.8707 2.1667 1.6921 1.9210 1.9220 1.6462 4.2750 2.4747 4.1401 6.1197 7.2790 3.4556 2.1676 4.3537
3.4208 5.2864 6.3921 4.3950 2.9564 3.7171 1.9840 2.6841 2.1237 1.8868 1.9656 1.9883 3.3316 5.8454 5.3641 9.1067 1.6328 3.5854 2.4467 1.7225 4.7014 1.5572 2.6645 2.8038 4.8373 7.0810 2.6156 5.2289 3.7562 4.8454 3.8367 5.7661 5.4370 3.0673 3.4359 1.6262 1.8544 1.6808 2.1817 2.2870 2.0233 6.0948 5.4413 5.1406 3.9784 6.3788 2.0366 1.5202 1.8412 1.7859 1.4752 4.4703 2.3321 4.5051 6.4399 8.5137 3.9713 2.0632 4.7296
3.7635 5.6091 7.3673 5.0212 3.4754 3.9682 1.9483 2.6337 2.0535 1.8071 1.9818 1.8739 3.0215 5.3887 5.1191 8.9138 1.5718 3.5797 2.4614 1.6285 4.8245 1.5297 2.6645 3.1265 5.1700 8.5578 2.9030 5.9332 4.2988 5.4816 4.2774 6.1900 6.5433 3.1805 3.9332 1.5684 1.9162 1.5686 2.1464 2.2380 1.9050 5.5287 5.0915 4.9025 3.8491 6.1596 2.0079 1.4882 1.7400 1.8297 1.4473 5.0701 2.4215 5.3134 7.4589 9.8439 4.4987 1.9889 5.3171
4.3235 5.9627 8.7280 5.5924 3.9576 4.1467 1.9087 2.4896 1.9701 1.8339 1.9342 1.7643 2.8857 5.2392 4.9352 8.6149 1.5666 3.3876 2.3930 1.5815 4.9751 1.6091 2.5233 3.4049 5.6800 10.0782 3.1089 6.7847 4.9833 6.4641 4.7527 6.9188 7.7968 3.2500 4.4152 1.5523 1.8727 1.4653 2.1179 2.2090 1.7427 5.3136 4.8775 4.7609 3.8410 5.9172 1.9634 1.4433 1.7088 1.7644 1.4854 5.9240 2.3419 6.1707 8.3912 11.1921 5.3057 1.9963 5.8570
5.1838 6.4587 10.4724 6.5419 4.8293 4.3145 1.9636 2.3756 1.9298 1.9302 2.0210 1.9092 2.8586 5.1860 4.7505 7.8896 1.6440 3.3373 2.5053 1.6903 5.0273 1.7331 2.5162 3.8797 6.5106 12.0196 3.4689 7.5375 5.9621 7.7492 5.5018 7.7326 9.6527 3.5046 5.2173 1.5614 1.8828 1.5424 2.1786 2.3382 1.8345 5.2606 5.0912 4.7769 3.5153 5.4615 2.0255 1.5190 1.8143 1.8130 1.5684 7.2639 2.3614 7.2832 9.7294 12.1149 5.9195 1.9495 6.4789
5.7411 6.8453 11.9474 7.4651 5.5540 4.6765 2.0400 2.3059 1.9690 1.9770 2.0186 1.8470 2.6963 5.0276 4.4570 7.8497 1.5365 3.1390 2.4277 1.7183 5.3165 1.8787 2.3818 4.1823 7.1726 13.4449 3.6380 8.1330 6.9113 8.5956 6.0370 8.3329 11.3912 3.6567 6.0306 1.5792 1.9167 1.5605 2.2430 2.3201 1.7294 4.9010 4.9287 4.5973 3.4758 5.5198 1.8581 1.4808 1.7538 1.7492 1.6493 8.3680 2.3230 8.0452 10.6885 12.8443 6.3646 1.9992 6.8415
6.3538 7.3633 13.5205 8.2609 6.3699 5.1327 2.1614 2.2411 1.9895 2.1420 2.2055 1.9971 2.5871 4.7121 4.4052 7.7289 1.6361 3.0618 2.4124 1.8037 5.7167 2.1122 2.3246 4.6625 8.2456 14.7723 3.8073 8.6601 7.5222 9.5767 6.7136 9.1717 13.0208 3.9517 6.8446 1.7935 1.9656 1.6115 2.4292 2.5559 1.7651 4.7349 4.9364 4.8744 3.6644 5.2686 1.8360 1.6593 1.7929 1.8184 1.8957 9.6782 2.3930 8.7864 11.7317 13.3331 6.7009 2.2924 7.2885
6.6057 7.4622 14.7713 8.6089 6.8162 5.6823 2.2291 2.1716 1.9804 2.4926 2.7927 2.2800 2.6364 4.9961 4.3783 7.3907 1.8760 3.2394 2.5024 2.1366 6.1334 2.1524 2.1894 4.7031 9.1121 15.6201 3.7671 8.6486 7.9991 10.0542 6.6622 9.6543 14.0682 3.9585 7.7348 2.0277 1.8921 1.6490 2.9390 3.0811 1.9147 4.8710 5.5497 5.4939 3.8569 5.1914 2.0022 2.0825 1.9757 1.7511 2.1823 10.1658 2.3255 9.0072 12.4694 13.4597 6.6664 2.6345 7.1758
6.2184 7.6304 14.9263 8.4411 6.8855 6.3749 2.5392 2.1792 2.1288 2.9557 3.8561 3.0181 2.6711 5.3199 4.8387 7.4811 2.3663 3.2332 2.6089 2.7780 6.7399 2.3750 2.3768 5.0747 10.1652 15.4812 3.6065 8.3676 7.6081 9.5784 6.6603 9.8938 13.9291 3.8625 8.2240 2.5384 2.0096 1.9810 3.6043 4.1977 2.1420 4.9514 6.7074 7.0096 4.5781 4.9287 1.9482 2.9760 2.3062 1.8619 2.8180 10.8783 2.4759 8.7546 12.7892 12.8228 6.1604 3.3683 6.9839
5.8176 7.4563 13.7498 7.5801 6.3519 6.7764 2.6859 2.1151 2.1156 3.7780 5.3853 4.2836 2.6547 5.8167 5.3448 7.9978 2.9557 3.3222 2.4624 3.6224 7.2142 2.5390 2.4516 5.1641 10.6699 14.6024 3.3724 7.2486 6.7593 8.6548 6.2790 9.5358 12.4485 3.5519 7.9701 3.1664 1.9634 2.3442 4.6766 5.9727 2.5058 5.0836 8.4792 9.0757 5.6950 4.9607 1.9405 4.1227 2.6754 1.9164 3.5238 10.6604 2.6325 8.0946 12.5000 11.3487 5.3301 4.3338 6.3674
5.0047 7.1147 12.8261 6.4060 5.4873 7.2935 3.0007 2.0627 2.2352 4.8262 7.3078 5.5652 2.7563 6.5585 5.6839 7.5969 3.7055 3.3704 2.5999 4.8303 7.3004 2.7384 2.5541 5.1395 10.8425 13.1617 3.0585 6.4340 5.7491 7.5125 5.7118 9.2703 10.7699 3.0647 7.8912 3.9619 1.9623 2.7890 6.0882 7.8897 2.8711 5.3571 10.5339 11.0779 6.3056 4.7110 1.9799 5.7619 3.1284 2.0084 4.4207 10.0379 2.7451 7.2351 11.7870 10.0129 4.5589 5.3266 5.6074
4.1356 6.5463 10.9229 5.5681 4.6966 7.1356 3.0554 2.0623 2.2020 5.4239 8.4837 6.6918 2.7449 7.0004 6.3366 7.9520 4.0854 3.5351 2.5928 5.2385 7.1239 2.6774 2.6084 5.0210 10.1001 11.6933 2.8778 5.5425 4.8361 6.1241 5.0161 8.4474 8.8799 2.8039 6.9767 4.4010 1.8406 3.1691 6.6646 9.4436 3.1766 5.4796 12.1312 13.3856 7.3842 4.5459 2.0531 6.5149 3.2953 2.0433 4.6242 9.1619 2.8624 6.6074 10.4814 8.8429 3.9482 5.8046 4.8105
3.4956 5.9477 8.9858 4.6495 3.9524 6.5213 3.0123 2.0569 2.2824 5.8189 9.1923 7.0773 2.8987 7.3281 6.6373 7.8247 4.2803 3.4570 2.5147 5.5871 6.8503 2.5737 2.6080 4.7210 9.4129 9.5547 2.5815 4.7446 4.0576 4.9826 4.4083 7.2324 7.2386 2.4119 5.9579 4.4838 1.7630 3.4283 7.0208 10.1327 3.2774 5.4525 13.0042 14.4529 7.5218 4.3939 1.9984 7.0740 3.4042 2.0257 4.6791 7.8780 2.8354 5.5888 9.2349 7.5840 3.2404 5.8485 4.2342
2.8611 5.0692 7.5145 3.8851 3.3252 5.9018 2.8575 1.9069 2.2584 5.6379 8.7391 6.8208 2.7108 7.0414 6.4714 7.3193 4.0073 3.1514 2.4362 5.1290 6.1428 2.2492 2.4277 4.2543 7.9317 7.9701 2.2622 3.8960 3.2603 4.0164 3.6493 6.2713 5.8718 2.0838 5.0842 4.2844 1.6856 3.3468 6.6348 9.8447 3.0642 4.9025 12.5958 14.0480 7.0208 4.0959 1.9074 6.5373 3.2646 1.8835 4.2233 6.5620 2.6007 4.8328 7.5794 6.3904 2.6962 5.5313 3.5154
2.4133 4.3354 5.8163 3.3075 2.7504 4.9037 2.6651 1.7169 2.1122 5.2136 7.6740 6.1227 2.5536 6.4682 6.1568 6.9341 3.4468 3.0059 2.3134 4.5153 5.3009 2.0262 2.3159 3.7079 6.5884 6.6332 1.9546 3.3685 2.7806 3.1456 3.0513 5.0180 4.6751 1.8743 4.0852 3.9212 1.5537 3.1702 5.8577 8.8366 2.7642 4.5368 11.2992 12.6867 6.1887 3.8344 1.8192 5.5964 2.9059 1.7914 3.5821 5.5272 2.3826 4.0761 6.3120 5.5621 2.3190 4.7798 2.9807
1.9856 3.5360 4.6273 2.7193 2.2814 3.8989 2.4442 1.6013 1.9003 4.6064 6.5723 5.2949 2.3419 5.9496 5.5975 6.4645 2.8271 2.7110 2.0875 3.7633 4.3289 1.6930 1.9964 3.0506 5.4931 5.4813 1.6935 2.8274 2.2310 2.5703 2.5655 3.9999 3.7098 1.6012 3.2828 3.2571 1.3864 2.8480 5.0757 7.7243 2.4273 4.1068 10.0224 11.2082 5.3984 3.7603 1.6635 4.5943 2.3985 1.5743 2.9595 4.5594 2.0073 3.3436 5.2024 4.8543 1.9742 3.9136 2.6184
1.5968 2.8309 3.7637 2.3072 1.9268 3.1223 2.2536 1.5200 1.7812 3.9360 5.1778 4.2046 2.1327 5.2109 5.0101 5.8916 2.3427 2.3925 1.8763 3.1801 3.5945 1.4711 1.7323 2.4770 4.3428 4.5037 1.4011 2.5409 1.8919 2.0978 2.0614 3.2121 3.1038 1.4247 2.6210 2.8460 1.2943 2.5504 4.3045 6.0553 2.0851 3.6492 8.2859 9.1195 4.4447 3.3497 1.4744 3.6366 2.1102 1.3980 2.3060 3.7338 1.6380 2.7019 4.0569 4.3320 1.7662 3.2198 2.1670
1.2785 2.3131 3.0986 2.0001 1.7089 2.6044 2.0025 1.3707 1.6181 3.1381 4.0086 3.3860 1.9028 4.5430 4.3270 5.4997 1.8553 2.1793 1.7076 2.5305 3.0233 1.2837 1.5774 2.0751 3.5551 3.6506 1.2252 2.1459 1.5278 1.6291 1.6870 2.5929 2.5739 1.3095 2.2514 2.2732 1.2207 2.1658 3.3784 4.8242 1.7169 3.2615 6.9216 7.5796 3.7405 3.2773 1.3601 2.7685 1.7569 1.2225 1.8973 3.1218 1.4218 2.2639 3.2122 3.7620 1.5962 2.6024 1.7906
1.1225 1.9750 2.7196 1.8117 1.5005 2.2175 1.7075 1.2967 1.4002 2.5503 3.1984 2.7231 1.7287 3.9039 3.6881 4.8586 1.5482 1.9721 1.6498 2.0969 2.5675 1.1771 1.4017 1.7763 2.8594 3.1910 1.0891 1.9064 1.3709 1.4034 1.4335 2.2187 2.2989 1.1638 1.9788 1.8532 1.0372 1.7761 2.8055 3.8002 1.4987 2.9020 5.6366 5.9996 3.0495 2.9849 1.2660 2.2038 1.5562 1.0875 1.5487 2.6722 1.2674 1.9830 2.6404 3.4877 1.4383 2.1392 1.6149
0.9872 1.7052 2.3005 1.6455 1.3422 1.8171 1.5692 1.2136 1.2929 2.0159 2.3302 2.1081 1.5793 3.4411 3.1859 4.6494 1.2227 1.7476 1.4020 1.6178 2.2363 1.0394 1.2428 1.4616 2.5095 2.7561 0.9743 1.6887 1.2359 1.2057 1.2448 1.8517 2.0252 1.0717 1.6881 1.4851 0.9939 1.4610 2.1810 2.8616 1.2876 2.7406 4.6431 4.7819 2.6314 2.8100 1.1349 1.5854 1.2720 0.9730 1.2463 2.3115 1.1005 1.6563 2.2783 3.1463 1.2885 1.6950 1.4052
0.8857 1.5199 2.0197 1.5360 1.2150 1.6307 1.4645 1.1671 1.2804 1.6558 1.9261 1.6907 1.5067 3.1109 2.8302 4.3102 1.0160 1.6015 1.3629 1.3645 2.0202 0.9495 1.1877 1.3493 2.1418 2.5225 0.9645 1.5219 1.1504 1.0751 1.0876 1.6451 1.8026 1.0239 1.4947 1.2764 0.9815 1.3138 1.8300 2.2979 1.1658 2.5011 3.9374 4.0696 2.2874 2.7227 1.0297 1.3091 1.1146 0.8940 1.0680 2.0366 1.0683 1.5631 2.0022 2.8492 1.2364 1.4859 1.2261
0.8295 1.3456 1.8192 1.4003 1.0872 1.4826 1.2734 1.1280 1.0912 1.3410 1.5442 1.4002 1.4211 2.8342 2.5419 3.9869 0.8763 1.5154 1.3039 1.1334 1.8594 0.8551 1.1253 1.1511 1.9589 2.2317 0.8861 1.4401 1.1032 0.9734 0.9976 1.4690 1.6467 0.9308 1.3220 1.0820 0.8587 1.0928 1.4687 1.8723 1.0117 2.3352 3.3537 3.3333 1.9868 2.5274 0.9983 1.0531 1.0075 0.8039 0.9123 1.8004 0.9453 1.3939 1.7514 2.6609 1.1509 1.2527 1.1326
0.8109 1.2568 1.6889 1.3785 1.0870 1.3426 1.1956 1.0650 1.0556 1.1521 1.2519 1.1217 1.2756 2.4556 2.2065 3.6312 0.7813 1.4372 1.2151 0.9863 1.7347 0.7694 1.0219 1.0512 1.7832 2.0213 0.8707 1.4168 1.0738 0.9110 0.9140 1.3347 1.5575 0.9360 1.2439 0.9512 0.8239 0.9963 1.2635 1.4694 0.9106 2.0913 2.7625 2.7285 1.7357 2.3583 0.9770 0.8890 0.8887 0.7681 0.7910 1.6691 0.8915 1.2690 1.6300 2.5131 1.1885 1.0985 1.0362
0.7604 1.1515 1.5817 1.2339 1.0074 1.1678 1.1077 1.0031 0.9885 0.9843 1.0567 0.9581 1.1574 2.2682 2.0164 3.5469 0.7187 1.3027 1.1207 0.8753 1.5566 0.7598 0.9770 1.0221 1.6183 1.8898 0.8711 1.3942 0.9838 0.8282 0.8776 1.2198 1.3899 0.8825 1.1624 0.8075 0.7774 0.8806 1.1087 1.2342 0.8316 2.0212 2.4434 2.3561 1.6072 2.2740 0.8904 0.7571 0.8320 0.7400 0.7360 1.5347 0.8635 1.2760 1.4837 2.3787 1.1891 0.9487 0.9704
0.7433 1.0829 1.4672 1.2131 0.9498 1.1777 1.0567 0.9869 0.9443 0.8872 0.9049 0.8483 1.0911 2.0683 1.8518 3.3218 0.6331 1.2419 1.1515 0.7736 1.5166 0.7548 0.9925 0.9543 1.5594 1.7857 0.7995 1.2942 0.9912 0.7784 0.8452 1.1593 1.3110 0.8316 1.1276 0.7637 0.7712 0.8180 0.9810 1.0591 0.7995 1.9233 2.1617 2.1040 1.5314 2.1341 0.8155 0.6559 0.7558 0.7244 0.6674 1.5084 0.8509 1.1746 1.3719 2.0957 1.0618 0.8924 0.8757
0.6756 1.0046 1.3060 1.1512 0.9196 1.0705 1.0462 0.9415 0.8934 0.7802 0.7989 0.7344 1.0220 1.8734 1.6616 3.1322 0.6171 1.1940 1.0630 0.7263 1.4590 0.7035 0.9690 0.9157 1.4492 1.6366 0.8116 1.2903 0.8972 0.7135 0.7781 1.0411 1.2204 0.8093 1.0156 0.7101 0.7421 0.7408 0.8913 0.9098 0.7462 1.7684 1.8892 1.8129 1.3928 2.0087 0.7900 0.6148 0.7217 0.7094 0.6233 1.3350 0.8343 1.1510 1.2151 2.0065 1.1085 0.8269 0.7965
0.6300 0.9519 1.2691 1.1267 0.8920 0.9992 0.9504 0.9259 0.8286 0.7566 0.7298 0.6844 0.9649 1.7354 1.5389 3.0688 0.5790 1.1316 1.0210 0.7365 1.3995 0.6881 0.9683 0.8910 1.4208 1.6161 0.7874 1.2988 0.8308 0.6787 0.7508 0.9859 1.1798 0.8045 0.9561 0.6434 0.6942 0.6889 0.8707 0.8064 0.7066 1.6703 1.6988 1.5913 1.3250 1.9997 0.8129 0.5759 0.7206 0.6504 0.6137 1.4053 0.8078 1.0791 1.1695 1.9999 1.1025 0.8005 0.7917
0.6304 0.8588 1.2832 1.1017 0.8776 0.9703 0.9566 0.9040 0.8138 0.7167 0.6836 0.6334 0.9416 1.6880 1.4488 2.8902 0.5463 1.0849 0.9197 0.6816 1.3465 0.6697 0.8978 0.8985 1.3141 1.4647 0.7447 1.3003 0.8356 0.6753 0.7343 0.9390 1.2058 0.8017 0.9379 0.6220 0.6985 0.6560 0.8471 0.7525 0.6857 1.6137 1.6060 1.4684 1.2082 1.9154 0.7375 0.5356 0.6594 0.6428 0.5961 1.2460 0.8006 0.9995 1.0460 2.0287 1.0551 0.7822 0.7785
0.6018 0.8605 1.2519 1.0990 0.8911 0.9160 0.9323 0.8832 0.7863 0.6939 0.6398 0.6205 0.8875 1.6345 1.3568 2.8007 0.5044 1.0134 0.8374 0.6610 1.3216 0.6686 0.9528 0.8814 1.2750 1.4823 0.7109 1.2992 0.8056 0.6371 0.7409 0.9048 1.2570 0.7830 0.8852 0.6060 0.6649 0.6510 0.8129 0.7130 0.6699 1.5865 1.5404 1.3435 1.1758 1.8602 0.6778 0.4935 0.6513 0.6342 0.6022 1.2268 0.7953 0.9776 1.0026 2.2044 1.0136 0.7568 0.8435
0.5534 0.7933 1.1978 1.0779 0.8840 0.8580 0.9372 0.8239 0.7318 0.6750 0.5874 0.5798 0.8814 1.4927 1.3121 2.7214 0.5213 1.0394 0.8254 0.6274 1.2198 0.6388 0.9419 0.9080 1.2242 1.3533 0.7517 1.3777 0.7810 0.6012 0.6984 0.8571 1.1769 0.7596 0.8676 0.5760 0.6546 0.6482 0.7794 0.6470 0.6373 1.5076 1.4061 1.2479 1.1169 1.7894 0.7093 0.4827 0.6354 0.6528 0.5624 1.1550 0.8059 0.9705 0.9399 2.4080 1.0958 0.7133 0.8511
0.5326 0.8265 1.1332 1.0629 0.8838 0.9116 0.9405 0.8467 0.7562 0.6322 0.5581 0.5314 0.8483 1.4039 1.2400 2.6306 0.4909 1.0452 0.8347 0.6188 1.2694 0.6423 0.9020 0.8274 1.1761 1.3123 0.6795 1.4574 0.7484 0.5853 0.7286 0.8995 1.0873 0.7777 0.8679 0.5573 0.6519 0.6434 0.7351 0.6087 0.6170 1.4002 1.3043 1.1800 1.1217 1.7784 0.7029 0.4615 0.6108 0.5870 0.5612 1.1335 0.7922 0.9026 0.9019 2.6259 1.1067 0.7365 0.9150
0.5612 0.7834 1.0880 1.0751 0.8397 0.8077 0.9015 0.8293 0.7011 0.6049 0.5286 0.5148 0.8689 1.3489 1.2173 2.5514 0.4800 1.0305 0.8719 0.6083 1.1962 0.5932 0.8736 0.8271 1.1594 1.2380 0.7093 1.6207 0.7725 0.5869 0.7621 0.8259 1.1069 0.7832 0.7902 0.5400 0.6095 0.5877 0.6908 0.5829 0.5866 1.3826 1.2274 1.0888 1.0572 1.6847 0.7506 0.4416 0.6182 0.6459 0.5331 1.0533 0.8024 0.9415 0.8213 2.9761 1.2484 0.6905 0.9282
0.5119 0.7184 1.0391 1.0102 0.7955 0.7774 0.9149 0.8261 0.7488 0.5898 0.4965 0.5141 0.9108 1.3132 1.1633 2.4806 0.4631 1.0678 0.8600 0.5747 1.1112 0.6111 0.9282 0.8831 1.1307 1.2643 0.7293 1.6392 0.7577 0.5522 0.7021 0.7681 1.0258 0.7707 0.8105 0.5195 0.6282 0.5954 0.6745 0.5448 0.6031 1.3198 1.1889 1.0270 1.0118 1.6981 0.7634 0.4152 0.5828 0.5719 0.5289 1.1175 0.8369 0.9898 0.7618 3.2876 1.3518 0.6344 0.9371
0.5627 0.7971 1.1217 0.9849 0.7754 0.8015 0.9043 0.8113 0.7900 0.5498 0.4641 0.4869 0.9167 1.2414 1.1197 2.3753 0.4342 1.0048 0.8669 0.5268 1.1569 0.5946 0.8439 0.8550 1.1610 1.2193 0.6726 1.6359 0.8512 0.5697 0.7047 0.8638 1.0548 0.7468 0.8247 0.5063 0.6040 0.5883 0.6255 0.5049 0.6537 1.3007 1.1042 0.9647 0.9720 1.6146 0.6626 0.3998 0.5162 0.5492 0.4968 1.1150 0.7659 0.9368 0.7727 3.5117 1.3207 0.6215 0.9893
0.5813 0.8028 1.0994 0.9798 0.7970 0.7929 0.8815 0.7844 0.7388 0.5292 0.4434 0.4347 0.8031 1.1984 1.0861 2.2875 0.4219 0.9772 0.8518 0.5359 1.1404 0.6185 0.8720 0.8509 1.1674 1.2194 0.6881 1.9120 0.8146 0.5568 0.7784 0.8784 1.0218 0.7499 0.7934 0.5090 0.6103 0.5590 0.5947 0.4750 0.5770 1.2497 1.0567 0.9250 0.9061 1.5533 0.6424 0.3928 0.5543 0.5316 0.5015 1.1298 0.7869 0.9668 0.7522 4.0679 1.5061 0.6204 1.0449
0.5588 0.7553 1.1458 1.0413 0.8871 0.7916 0.9104 0.7748 0.7378 0.5144 0.4324 0.4615 0.7341 1.1773 1.0400 2.2365 0.4372 0.9054 0.8292 0.5273 1.0684 0.5990 0.8799 0.8273 1.1206 1.2021 0.7024 1.8723 0.8001 0.5550 0.7655 0.8865 1.0762 0.8182 0.8229 0.5129 0.6289 0.5610 0.5893 0.4752 0.5674 1.2034 1.0493 0.8836 0.9060 1.4761 0.6430 0.3877 0.5313 0.5825 0.5045 1.0813 0.7977 0.9690 0.7117 4.1295 1.5014 0.6114 1.0444
0.5995 0.7579 1.1166 0.9739 0.8504 0.7554 0.9265 0.8042 0.7788 0.4964 0.4353 0.4409 0.7745 1.1396 0.9951 2.0946 0.4358 0.8820 0.8205 0.5147 1.0626 0.6176 0.8982 0.7864 1.1166 1.1810 0.6904 2.1026 0.7874 0.5311 0.9100 0.8798 1.0350 0.7751 0.8086 0.4948 0.6081 0.5575 0.5837 0.4708 0.6002 1.1688 1.0122 0.8566 0.8909 1.4158 0.6103 0.3885 0.5220 0.5481 0.5087 1.0957 0.7801 0.9425 0.7093 4.4719 1.5914 0.6225 1.0990
0.6114 0.8088 1.1202 0.9694 0.7227 0.7012 0.8787 0.8214 0.7219 0.4883 0.4067 0.4304 0.7687 1.0991 0.9883 2.0782 0.3889 0.8131 0.7806 0.4788 1.0298 0.5773 0.8691 0.7923 1.0849 1.2429 0.7057 2.1117 0.7967 0.5324 0.8887 0.9252 0.9389 0.7496 0.7608 0.4784 0.5778 0.5282 0.5649 0.4539 0.5595 1.1264 0.9740 0.8192 0.8490 1.3996 0.5654 0.3465 0.4687 0.5324 0.4590 1.1221 0.7554 0.9398 0.7652 4.2127 1.6742 0.5927 1.0298
0.5585 0.7105 1.0798 0.9473 0.7613 0.6972 0.8684 0.7726 0.8309 0.4830 0.4086 0.4194 0.8088 1.0442 0.8981 2.0115 0.3947 0.7955 0.7358 0.4687 0.9955 0.5814 0.8958 0.7537 1.0333 1.1683 0.6754 1.8204 0.7675 0.5228 0.7647 0.7985 0.9749 0.7271 0.7739 0.4581 0.5959 0.5433 0.5443 0.4531 0.5958 1.0899 0.9311 0.7819 0.8416 1.4081 0.5975 0.3501 0.4783 0.5377 0.4588 1.0364 0.7341 0.8867 0.7296 3.6603 1.5125 0.5700 0.9892
0.5329 0.7017 0.9926 0.9380 0.7679 0.6974 0.8447 0.7917 0.6824 0.4846 0.3830 0.3871 0.6918 1.0216 0.8591 1.9687 0.3594 0.8156 0.7875 0.4572 0.9724 0.5747 0.8054 0.8171 0.9997 1.1548 0.7650 1.7552 0.7606 0.4902 0.6896 0.7895 0.9334 0.7235 0.7151 0.4672 0.5658 0.5117 0.5385 0.4137 0.5131 1.0517 0.8956 0.7517 0.7977 1.3576 0.5883 0.3367 0.4649 0.5338 0.4513 0.9595 0.7923 0.9665 0.6937 3.6871 1.5577 0.5575 0.9526
0.5119 0.6518 0.9575 0.9594 0.7079 0.6710 0.8511 0.7821 0.6897 0.4507 0.3748 0.3947 0.6587 0.9568 0.8178 1.9012 0.3532 0.8196 0.8139 0.4567 0.8981 0.5684 0.8341 0.8085 0.9469 1.1400 0.7291 1.7940 0.7926 0.4568 0.6760 0.7337 0.8840 0.6819 0.7181 0.4428 0.5622 0.5137 0.5296 0.4092 0.5329 1.0228 0.8515 0.7353 0.7877 1.3386 0.5968 0.3233 0.4718 0.5645 0.4421 0.9597 0.7588 0.9481 0.7147 3.5113 1.6201 0.5331 0.8739
0.4685 0.6092 0.9022 0.9337 0.7011 0.6435 0.8242 0.7754 0.6649 0.4515 0.3574 0.3825 0.6438 0.9797 0.7959 1.8060 0.3336 0.7337 0.7063 0.4405 0.9019 0.5542 0.8106 0.8204 0.9629 1.1022 0.7019 1.7820 0.7076 0.4399 0.6788 0.6362 0.8874 0.6669 0.6991 0.4244 0.5594 0.4901 0.5179 0.3961 0.5201 1.0419 0.8412 0.6863 0.7282 1.2593 0.5120 0.3081 0.4363 0.5427 0.4501 0.9759 0.7505 0.9218 0.7072 3.0666 1.5368 0.5208 0.7900
0.4475 0.5745 0.8232 0.8704 0.7086 0.6252 0.8134 0.6978 0.6591 0.4370 0.3608 0.3668 0.6333 0.9366 0.8011 1.7731 0.3666 0.7399 0.7040 0.4404 0.8593 0.5363 0.7985 0.7731 0.9029 0.9993 0.6742 1.5619 0.6247 0.4398 0.6469 0.5792 0.8725 0.6680 0.6849 0.4197 0.5480 0.4737 0.5031 0.3854 0.5014 1.0033 0.8455 0.6903 0.7097 1.2441 0.5670 0.3180 0.4372 0.5174 0.4250 0.8833 0.7284 0.8666 0.6440 2.6239 1.3078 0.4957 0.7295
0.4532 0.5671 0.8027 0.8222 0.7215 0.6006 0.8075 0.6927 0.7113 0.4219 0.3561 0.3530 0.6387 0.8803 0.7837 1.7144 0.3417 0.7456 0.7935 0.4376 0.8425 0.5874 0.7200 0.7983 0.8700 0.9959 0.6750 1.2126 0.6427 0.4303 0.5722 0.5824 0.8482 0.6794 0.6602 0.4010 0.5659 0.4630 0.5011 0.3766 0.5069 0.9315 0.7987 0.6789 0.7284 1.2030 0.6082 0.3081 0.4544 0.5396 0.4378 0.8296 0.7419 0.9068 0.5741 2.0883 1.1049 0.4854 0.6040
0.4894 0.6194 0.8108 0.7952 0.6764 0.5675 0.8212 0.6954 0.7749 0.4319 0.3418 0.3460 0.7015 0.9075 0.7696 1.7084 0.3574 0.8589 0.8470 0.4227 0.8193 0.5835 0.7374 0.7908 0.8794 0.9779 0.7036 1.2233 0.7257 0.4101 0.5825 0.6253 0.7837 0.6238 0.6638 0.3906 0.6065 0.4762 0.4947 0.3720 0.5325 0.9793 0.7930 0.6682 0.7204 1.2759 0.7916 0.2993 0.4419 0.5389 0.4236 0.8366 0.7537 0.9364 0.6143 1.9975 1.1514 0.4710 0.5818
0.4711 0.5722 0.7954 0.8666 0.6669 0.5871 0.8647 0.6794 0.7277 0.4190 0.3268 0.3426 0.6911 0.8687 0.7229 1.6047 0.3688 0.8759 0.7470 0.4139 0.8123 0.5834 0.7399 0.7972 0.8252 1.0094 0.6648 1.1283 0.7165 0.4228 0.5251 0.5988 0.8396 0.6829 0.6610 0.3995 0.5691 0.4609 0.4770 0.3614 0.5000 0.9485 0.7910 0.6361 0.7010 1.3092 0.7831 0.2834 0.4327 0.5897 0.4175 0.7753 0.7083 0.8854 0.5985 2.0152 1.0863 0.4659 0.5948
0.4123 0.4723 0.7202 0.8562 0.6459 0.5490 0.8349 0.6856 0.7690 0.3998 0.3257 0.3210 0.6642 0.8412 0.7250 1.6205 0.3248 0.7530 0.5989 0.3787 0.7612 0.5127 0.6791 0.7826 0.7132 0.9811 0.6027 0.9463 0.6508 0.4074 0.4807 0.4966 0.8200 0.6888 0.6097 0.3730 0.5525 0.4528 0.4610 0.3559 0.5127 0.9252 0.7418 0.6209 0.6833 1.1923 0.5835 0.2730 0.3985 0.5109 0.3845 0.6600 0.6982 0.7806 0.5443 1.8275 0.8719 0.4412 0.6077
0.4038 0.4724 0.6846 0.8557 0.6413 0.5139 0.7766 0.6515 0.6733 0.3963 0.3158 0.3161 0.5975 0.8081 0.6720 1.5642 0.2928 0.7016 0.6888 0.3748 0.7722 0.4873 0.6523 0.7018 0.7144 0.9087 0.6118 1.0147 0.6112 0.3972 0.5161 0.4775 0.8107 0.6652 0.5671 0.3601 0.4861 0.4402 0.4483 0.3447 0.4701 0.8773 0.7013 0.5957 0.6363 1.1225 0.4971 0.2765 0.3779 0.4953 0.3677 0.6794 0.6689 0.7606 0.5237 1.8382 0.9472 0.4444 0.6114
0.3900 0.4663 0.7128 0.8164 0.6455 0.5133 0.7782 0.6071 0.5612 0.3925 0.3004 0.3082 0.5888 0.8643 0.6783 1.5336 0.2868 0.6366 0.5928 0.3709 0.7620 0.4283 0.6248 0.7264 0.7052 0.8590 0.5769 1.0671 0.5741 0.3822 0.5112 0.4701 0.8118 0.6221 0.5554 0.3598 0.5490 0.4066 0.4411 0.3218 0.4283 0.8702 0.7171 0.5628 0.6498 1.0927 0.4440 0.2670 0.3520 0.5630 0.3568 0.6558 0.6583 0.7298 0.5068 1.8641 0.9453 0.4424 0.5536
0.4593 0.5190 0.8023 0.8909 0.6942 0.5151 0.7213 0.6107 0.6473 0.3854 0.2833 0.3129 0.6374 0.9026 0.7062 1.5205 0.3020 0.6354 0.7117 0.3753 0.7376 0.4818 0.7106 0.7858 0.7521 0.8153 0.6435 1.2447 0.6727 0.4236 0.5971 0.5553 0.8973 0.5831 0.5972 0.3610 0.5696 0.4020 0.4221 0.3113 0.4735 0.9015 0.7146 0.5518 0.6330 1.1009 0.4901 0.2603 0.3838 0.5529 0.3701 0.7088 0.7229 0.8142 0.5084 2.0503 1.0825 0.4417 0.5548
0.4682 0.5252 0.7618 0.7801 0.6048 0.4853 0.6434 0.5870 0.5514 0.3835 0.2896 0.2954 0.6231 0.8359 0.6670 1.4912 0.2838 0.6561 0.7741 0.3572 0.7148 0.4669 0.6369 0.7211 0.7457 0.8263 0.6267 1.1854 0.6690 0.4131 0.5776 0.5563 0.7848 0.4935 0.5624 0.3472 0.5073 0.3567 0.4191 0.3087 0.4389 0.8625 0.6964 0.5550 0.6174 1.0431 0.5314 0.2578 0.3518 0.4693 0.3422 0.7365 0.7074 0.7698 0.4961 2.0146 1.0586 0.4127 0.5451
0.4701 0.5273 0.7436 0.7788 0.6590 0.4780 0.6805 0.5754 0.5551 0.3693 0.2759 0.2889 0.5787 0.7508 0.6121 1.4008 0.2933 0.6781 0.7012 0.3598 0.7016 0.4300 0.6558 0.7777 0.6966 0.8051 0.5982 1.1508 0.6818 0.4202 0.5460 0.5461 0.7728 0.5364 0.6073 0.3447 0.5265 0.3627 0.4105 0.2945 0.4221 0.8060 0.6509 0.5309 0.5927 1.0576 0.5330 0.2644 0.3529 0.4507 0.3358 0.6671 0.7044 0.7511 0.4897 2.0476 1.0146 0.4150 0.5711
0.4578 0.5324 0.7307 0.7703 0.6388 0.4609 0.6629 0.6160 0.5549 0.3676 0.2739 0.2830 0.5618 0.7315 0.6055 1.3542 0.2865 0.6375 0.5634 0.3547 0.6814 0.4514 0.6333 0.7240 0.6922 0.8349 0.5931 1.2379 0.6695 0.4210 0.5530 0.5313 0.7469 0.5571 0.5342 0.3308 0.5181 0.3451 0.4165 0.2895 0.4378 0.8298 0.6280 0.4975 0.5617 1.0355 0.4639 0.2553 0.3443 0.4325 0.3355 0.6421 0.7467 0.7372 0.5542 2.0591 1.0436 0.4019 0.5943
0.4421 0.5596 0.7132 0.8140 0.6585 0.4419 0.6389 0.5587 0.5376 0.3544 0.2604 0.2762 0.5391 0.7470 0.5933 1.3145 0.2632 0.6646 0.7002 0.3377 0.6581 0.4275 0.6798 0.7539 0.7142 0.8361 0.6016 1.4071 0.6161 0.3870 0.6246 0.5469 0.7637 0.5928 0.5255 0.3165 0.4723 0.3340 0.3939 0.2893 0.4129 0.7985 0.6320 0.5055 0.5437 0.9886 0.4780 0.2396 0.3404 0.4353 0.3137 0.6927 0.7514 0.7525 0.5757 2.1472 1.1244 0.3699 0.5807
0.4310 0.5037 0.7313 0.8610 0.6588 0.4488 0.6192 0.5767 0.4330 0.3350 0.2523 0.2672 0.4904 0.7104 0.5756 1.2805 0.2523 0.5772 0.6100 0.3519 0.6585 0.4227 0.6189 0.7177 0.6768 0.8578 0.5654 1.3370 0.6384 0.4208 0.5998 0.5120 0.8771 0.5915 0.5362 0.3135 0.4199 0.3137 0.3934 0.2592 0.3808 0.7515 0.6043 0.4753 0.5401 0.8975 0.4041 0.2362 0.3328 0.4364 0.3118 0.7312 0.6975 0.7169 0.5329 2.1058 1.0607 0.3827 0.5834
0.4500 0.4713 0.7041 0.8824 0.6646 0.4467 0.6375 0.5483 0.5341 0.3479 0.2613 0.2614 0.5430 0.7090 0.5734 1.3439 0.2514 0.5404 0.6189 0.3355 0.6452 0.4317 0.6250 0.6856 0.6670 0.7983 0.5778 1.2256 0.7143 0.4166 0.5433 0.4803 0.8680 0.6224 0.5246 0.3148 0.4902 0.3387 0.3893 0.2734 0.3939 0.7651 0.6048 0.4892 0.5461 0.9477 0.4079 0.2365 0.3353 0.4214 0.3114 0.7046 0.6946 0.7227 0.4636 1.9624 1.0438 0.3791 0.5258
0.4178 0.4394 0.6551 0.8172 0.5782 0.4297 0.6376 0.5433 0.5382 0.3363 0.2615 0.2606 0.5509 0.7175 0.5496 1.2771 0.2391 0.5454 0.5379 0.3368 0.6248 0.4027 0.6088 0.7007 0.6000 0.7486 0.5922 1.0470 0.6608 0.3657 0.4912 0.4570 0.7605 0.5841 0.5108 0.2968 0.4375 0.3277 0.3850 0.2738 0.4090 0.7711 0.6125 0.4674 0.5239 0.9466 0.3839 0.2289 0.3310 0.4635 0.2965 0.5812 0.6898 0.7296 0.4226 1.6243 0.9433 0.3637 0.4772
0.4192 0.4332 0.6901 0.7668 0.5941 0.4156 0.6536 0.5542 0.5358 0.3325 0.2503 0.2453 0.5724 0.7377 0.5757 1.2238 0.2511 0.4858 0.4898 0.3315 0.6213 0.3691 0.6908 0.7892 0.5717 0.7561 0.5415 0.9847 0.6186 0.3804 0.4867 0.4452 0.7887 0.5594 0.5347 0.2858 0.4894 0.3179 0.3795 0.2585 0.3983 0.7513 0.5883 0.4694 0.5072 0.9195 0.3604 0.2251 0.3536 0.5306 0.2916 0.5625 0.7127 0.6778 0.4486 1.4476 0.8452 0.3535 0.4497
0.3911 0.3937 0.6824 0.6982 0.5661 0.3932 0.6290 0.5791 0.4841 0.3218 0.2438 0.2500 0.6197 0.7359 0.5900 1.2107 0.2301 0.4885 0.4605 0.3281 0.5926 0.3576 0.5702 0.7346 0.5631 0.7539 0.5531 0.9341 0.5596 0.3927 0.4775 0.4058 0.7826 0.5229 0.4705 0.2812 0.4211 0.3202 0.3769 0.2582 0.3955 0.6922 0.5866 0.4600 0.5007 0.8801 0.3594 0.2233 0.3114 0.4426 0.2781 0.5833 0.7041 0.6524 0.4559 1.2591 0.8019 0.3419 0.4181
0.3861 0.3611 0.6457 0.6890 0.5147 0.3790 0.6179 0.5774 0.5178 0.3199 0.2382 0.2357 0.6393 0.6973 0.5445 1.1708 0.2201 0.5070 0.4983 0.3277 0.5802 0.3625 0.5996 0.7378 0.5395 0.7686 0.5587 0.8932 0.5483 0.3766 0.4500 0.3822 0.7181 0.5210 0.4589 0.2736 0.4030 0.3133 0.3664 0.2522 0.4095 0.6882 0.5618 0.4412 0.4958 0.8626 0.3749 0.2144 0.2895 0.4918 0.2791 0.5503 0.7445 0.6780 0.4167 1.2241 0.7852 0.3358 0.4170
0.3638 0.3611 0.6034 0.6493 0.5298 0.3676 0.5548 0.5571 0.4839 0.3071 0.2375 0.2357 0.5503 0.6432 0.5031 1.1319 0.2233 0.5243 0.5733 0.3104 0.5569 0.3946 0.6128 0.7013 0.5173 0.7312 0.5180 0.8511 0.5129 0.3519 0.4495 0.3611 0.6890 0.4962 0.4312 0.2550 0.3654 0.2921 0.3471 0.2541 0.3968 0.6605 0.5390 0.4288 0.4690 0.8527 0.4016 0.2177 0.2891 0.4438 0.2709 0.5535 0.7579 0.6559 0.4068 1.1658 0.7260 0.3206 0.3948
0.3868 0.3444 0.5608 0.6452 0.5178 0.3552 0.5360 0.4986 0.4899 0.3144 0.2347 0.2281 0.4802 0.6186 0.5211 1.1324 0.2323 0.5182 0.5039 0.3003 0.5440 0.3868 0.5975 0.6914 0.5279 0.7194 0.5273 0.8119 0.5178 0.3420 0.4204 0.3507 0.6623 0.4435 0.4153 0.2544 0.3744 0.2806 0.3521 0.2479 0.3955 0.6574 0.5277 0.4284 0.4730 0.8149 0.3909 0.2064 0.3010 0.4258 0.2688 0.5663 0.7099 0.6680 0.4015 1.1720 0.7414 0.3210 0.4125
0.3865 0.3474 0.5897 0.6461 0.5463 0.3442 0.5085 0.4933 0.4201 0.3036 0.2255 0.2266 0.5094 0.5981 0.5118 1.1175 0.2286 0.5102 0.4949 0.3114 0.5279 0.3904 0.6316 0.7283 0.5173 0.7578 0.5603 0.7725 0.5251 0.3440 0.4019 0.3683 0.6813 0.4315 0.4023 0.2534 0.4180 0.2673 0.3446 0.2307 0.3649 0.6502 0.5244 0.4173 0.4582 0.8296 0.3894 0.2096 0.3023 0.4296 0.2730 0.5518 0.7381 0.7154 0.3926 1.1519 0.7391 0.3051 0.4094
0.3904 0.3786 0.6258 0.6915 0.5842 0.3520 0.5281 0.4772 0.4004 0.3005 0.2220 0.2201 0.5565 0.5880 0.4638 1.0554 0.2311 0.4854 0.5752 0.2975 0.5397 0.3830 0.6420 0.7867 0.5276 0.7424 0.5718 0.8845 0.5161 0.3494 0.4366 0.3790 0.7383 0.4477 0.4189 0.2568 0.3907 0.2761 0.3405 0.2241 0.3544 0.6287 0.5103 0.4009 0.4503 0.7984 0.4219 0.2035 0.2868 0.4997 0.2631 0.5634 0.7222 0.6801 0.4247 1.2797 0.7734 0.3069 0.4140
0.4001 0.3810 0.6200 0.6500 0.5754 0.3374 0.5368 0.5453 0.4416 0.3040 0.2184 0.2169 0.5483 0.5745 0.4636 1.0413 0.2273 0.4920 0.5152 0.2907 0.5400 0.3516 0.5789 0.7096 0.5305 0.7540 0.5732 0.9433 0.4813 0.3535 0.4766 0.3661 0.7316 0.4731 0.3979 0.2561 0.3875 0.2750 0.3344 0.2270 0.3653 0.6369 0.4994 0.4021 0.4551 0.7677 0.4148 0.2012 0.2757 0.4545 0.2486 0.5386 0.7174 0.7054 0.4452 1.3633 0.8270 0.3085 0.4394
0.3879 0.3325 0.5843 0.6855 0.6300 0.3292 0.4974 0.5478 0.4041 0.2912 0.2152 0.2196 0.4655 0.5644 0.4522 1.0472 0.2260 0.4356 0.5093 0.2787 0.5216 0.3386 0.5277 0.6534 0.5044 0.7574 0.5536 0.9019 0.5111 0.3443 0.4241 0.3411 0.7150 0.4645 0.4015 0.2452 0.4122 0.2539 0.3276 0.2232 0.3535 0.6354 0.4892 0.3828 0.4398 0.7490 0.3798 0.1994 0.2692 0.4318 0.2426 0.5260 0.6700 0.6467 0.4248 1.3172 0.8226 0.3008 0.4201
0.3977 0.3297 0.5784 0.7230 0.5638 0.3170 0.5097 0.4966 0.3708 0.2864 0.2062 0.2029 0.4307 0.5550 0.4434 1.0407 0.2123 0.4358 0.4919 0.2751 0.4954 0.3427 0.5037 0.6127 0.5159 0.7722 0.5386 0.9219 0.5372 0.3530 0.4288 0.3481 0.6622 0.4591 0.4132 0.2342 0.3701 0.2494 0.3255 0.2152 0.3406 0.6254 0.4808 0.3785 0.4402 0.7680 0.3507 0.1908 0.2553 0.3868 0.2456 0.5466 0.6319 0.6343 0.4548 1.2989 0.7948 0.3006 0.3949
0.4384 0.3670 0.6170 0.7237 0.5592 0.3267 0.4792 0.4743 0.3971 0.2824 0.2057 0.2062 0.4210 0.5321 0.4432 0.9867 0.2077 0.4208 0.4847 0.2775 0.5168 0.3255 0.5219 0.5889 0.5498 0.7053 0.5398 1.0451 0.5823 0.3666 0.4427 0.3878 0.6685 0.4439 0.4269 0.2322 0.3781 0.2414 0.3192 0.2084 0.3582 0.6115 0.4619 0.3737 0.4236 0.7290 0.3396 0.1952 0.2525 0.3575 0.2302 0.5649 0.5814 0.6600 0.4655 1.4641 0.9354 0.2990 0.3936
0.4827 0.4171 0.6471 0.6620 0.5094 0.3197 0.4849 0.4920 0.4103 0.2895 0.2063 0.2038 0.4069 0.5134 0.4203 0.9695 0.1985 0.4420 0.5632 0.2762 0.5187 0.3546 0.5641 0.5928 0.5862 0.7032 0.5683 1.1057 0.6355 0.3821 0.4802 0.4214 0.6678 0.4212 0.4369 0.2470 0.3434 0.2538 0.3147 0.2128 0.3550 0.5825 0.4505 0.3568 0.4127 0.7040 0.3598 0.1938 0.2575 0.3660 0.2296 0.6391 0.6056 0.6753 0.4822 1.5835 0.9752 0.2996 0.3994
0.4844 0.4270 0.6509 0.6711 0.5711 0.3077 0.4881 0.5218 0.4543 0.2839 0.2014 0.2048 0.4147 0.5174 0.4230 0.9507 0.1947 0.4062 0.5129 0.2740 0.4941 0.3391 0.5135 0.5711 0.5590 0.6486 0.5689 1.1350 0.6319 0.3747 0.4995 0.4407 0.6646 0.4435 0.4531 0.2345 0.3540 0.2808 0.3135 0.2070 0.3725 0.5624 0.4506 0.3685 0.4147 0.6954 0.3253 0.1944 0.2412 0.3251 0.2240 0.5993 0.5566 0.6851 0.4212 1.6463 0.9602 0.2948 0.4035
0.5229 0.4562 0.7109 0.7065 0.6174 0.3134 0.4871 0.5383 0.4599 0.2822 0.2033 0.2059 0.4920 0.5398 0.4389 0.9229 0.2015 0.3995 0.5942 0.2795 0.4929 0.3271 0.4859 0.5352 0.5736 0.6718 0.5894 1.1771 0.6932 0.3751 0.4962 0.4904 0.7086 0.4562 0.4744 0.2371 0.3889 0.2602 0.3067 0.2084 0.3942 0.5835 0.4529 0.3593 0.4018 0.6653 0.3274 0.1978 0.2348 0.4004 0.2191 0.6133 0.5388 0.7150 0.4089 1.8216 1.0322 0.2886 0.4044
0.5537 0.4510 0.7112 0.6979 0.5400 0.3116 0.4757 0.4939 0.4444 0.2742 0.2072 0.1957 0.5702 0.5447 0.4236 0.9113 0.1876 0.4362 0.5649 0.2641 0.4882 0.3380 0.5056 0.5806 0.5484 0.7511 0.5682 1.0390 0.7191 0.3568 0.4841 0.5160 0.6735 0.4093 0.4447 0.2309 0.3569 0.2560 0.3013 0.2093 0.4051 0.6209 0.4479 0.3578 0.4009 0.6680 0.3322 0.1977 0.2345 0.3652 0.2222 0.5785 0.5504 0.7316 0.4086 1.7672 0.9473 0.2728 0.4039
0.5481 0.4327 0.6668 0.6720 0.5060 0.3111 0.4815 0.4766 0.4646 0.2734 0.2191 0.2049 0.4693 0.5255 0.4172 0.8994 0.1901 0.4663 0.6303 0.2794 0.4771 0.3864 0.5554 0.6124 0.5614 0.7113 0.5763 1.0324 0.7123 0.3398 0.5010 0.5067 0.5976 0.4181 0.4484 0.2328 0.3421 0.2607 0.3077 0.2177 0.3954 0.5641 0.4524 0.3558 0.3932 0.6768 0.3671 0.2045 0.2501 0.3573 0.2256 0.6390 0.5702 0.7275 0.4025 1.7815 0.9240 0.2782 0.4514
0.5365 0.4413 0.6667 0.6329 0.6126 0.3047 0.4940 0.5120 0.4600 0.2874 0.2084 0.2001 0.4119 0.5123 0.4407 0.8907 0.1836 0.4427 0.6786 0.2735 0.4762 0.3937 0.5438 0.6118 0.5787 0.6740 0.5854 1.1306 0.6799 0.3258 0.5309 0.4873 0.6390 0.4434 0.4708 0.2411 0.3668 0.2710 0.3009 0.2133 0.3689 0.5366 0.4404 0.3559 0.3989 0.6692 0.3641 0.2024 0.2432 0.3536 0.2312 0.6399 0.5623 0.7269 0.3973 1.9155 0.9900 0.2681 0.4599
0.5411 0.5328 0.7547 0.6474 0.5901 0.2979 0.4871 0.5258 0.4184 0.2826 0.2211 0.2133 0.4314 0.4816 0.4096 0.8655 0.1874 0.4332 0.7188 0.2676 0.4799 0.3925 0.6053 0.5512 0.6532 0.6068 0.5677 1.4892 0.7603 0.3332 0.6626 0.5810 0.6302 0.4125 0.4667 0.2416 0.4098 0.2704 0.3070 0.2333 0.3500 0.5484 0.4347 0.3542 0.3802 0.6383 0.3302 0.2078 0.2371 0.3871 0.2277 0.7291 0.5349 0.7167 0.4601 2.1091 1.1474 0.2927 0.4198
0.5427 0.5710 0.8085 0.7153 0.5837 0.2965 0.4714 0.4995 0.4242 0.2872 0.2311 0.2170 0.3803 0.4788 0.3920 0.8507 0.1946 0.4259 0.7397 0.2731 0.4643 0.3991 0.6179 0.5891 0.6280 0.6043 0.5732 1.4865 0.8057 0.3369 0.6580 0.6332 0.6620 0.4231 0.4995 0.2414 0.4130 0.2704 0.3119 0.2373 0.3346 0.5324 0.4381 0.3556 0.3791 0.6309 0.3456 0.2169 0.2581 0.4210 0.2288 0.7014 0.5664 0.6642 0.5302 1.8169 1.0905 0.2930 0.3860
0.5150 0.4980 0.7424 0.7244 0.5878 0.2945 0.4646 0.5051 0.4240 0.2813 0.2410 0.2108 0.4336 0.4823 0.3793 0.8339 0.2028 0.4496 0.7457 0.2810 0.4431 0.3588 0.5809 0.5979 0.5475 0.6351 0.5636 1.2893 0.7485 0.3386 0.5479 0.5587 0.7032 0.4192 0.4797 0.2280 0.4024 0.2588 0.3197 0.2409 0.3520 0.5260 0.4430 0.3697 0.3855 0.6589 0.3417 0.2239 0.2626 0.4234 0.2266 0.5979 0.5243 0.6362 0.5010 1.6122 1.0236 0.2871 0.3989
0.4857 0.3659 0.6498 0.7045 0.5342 0.2952 0.4438 0.5063 0.3782 0.2862 0.2507 0.2218 0.5587 0.4774 0.3739 0.8262 0.2067 0.4562 0.5728 0.2723 0.4350 0.3318 0.5393 0.5663 0.4833 0.6010 0.5731 1.0188 0.6755 0.3582 0.4036 0.4148 0.6970 0.4556 0.4177 0.2188 0.3580 0.2455 0.3144 0.2538 0.3577 0.5285 0.4456 0.3826 0.4002 0.6962 0.3451 0.2217 0.2547 0.4747 0.2231 0.4878 0.5469 0.5932 0.3871 1.5241 0.9464 0.2674 0.4323
0.3817 0.2911 0.5551 0.6414 0.5166 0.2758 0.4392 0.5001 0.3533 0.2832 0.2486 0.2173 0.5839 0.4964 0.3784 0.7984 0.1955 0.4074 0.4309 0.2675 0.4299 0.3162 0.5431 0.5048 0.4182 0.5568 0.4967 0.7987 0.4784 0.3357 0.3510 0.3036 0.6421 0.4700 0.3512 0.2064 0.3296 0.2414 0.3114 0.2533 0.3490 0.5275 0.4440 0.3699 0.3924 0.6727 0.3282 0.2167 0.2422 0.3451 0.2028 0.4249 0.5149 0.4920 0.3168 1.3037 0.7327 0.2543 0.4251
0.3649 0.2973 0.5001 0.5562 0.5103 0.2575 0.4624 0.5666 0.4005 0.2959 0.2473 0.2195 0.5390 0.4848 0.3903 0.7897 0.2139 0.4167 0.5433 0.2736 0.4328 0.3351 0.5736 0.5242 0.4429 0.5794 0.4878 0.7304 0.4268 0.3092 0.3596 0.2919 0.5157 0.4547 0.3488 0.2075 0.3590 0.2764 0.3079 0.2553 0.3717 0.5339 0.4470 0.3782 0.3980 0.6587 0.3420 0.2272 0.2377 0.3720 0.2164 0.4238 0.5055 0.5532 0.3187 1.1440 0.6514 0.2551 0.3708
0.3595 0.2895 0.4969 0.5578 0.4606 0.2592 0.4647 0.5409 0.4038 0.2882 0.2502 0.2183 0.4253 0.4574 0.3850 0.7425 0.2017 0.3976 0.4831 0.2669 0.4126 0.3354 0.5477 0.5275 0.4102 0.5882 0.4536 0.6989 0.4410 0.2994 0.3451 0.2932 0.5124 0.4511 0.3338 0.2032 0.3265 0.2833 0.3136 0.2497 0.3508 0.4839 0.4223 0.3641 0.3590 0.6332 0.3350 0.2251 0.2293 0.3513 0.1981 0.4270 0.4722 0.5756 0.3226 1.0469 0.5966 0.2477 0.3437
0.3679 0.2850 0.4856 0.5876 0.4837 0.2513 0.4857 0.5659 0.4234 0.2753 0.2491 0.2242 0.3858 0.4545 0.3733 0.7478 0.1960 0.3315 0.4143 0.2623 0.4090 0.3245 0.5362 0.5744 0.4111 0.5814 0.4222 0.6706 0.4366 0.2651 0.3254 0.2905 0.5393 0.4938 0.3295 0.2067 0.3086 0.3127 0.3068 0.2444 0.3726 0.5035 0.4244 0.3665 0.3598 0.5904 0.2728 0.2203 0.2314 0.3362 0.2033 0.4153 0.4705 0.5217 0.3109 1.1501 0.5624 0.2459 0.3737
0.4140 0.2715 0.5035 0.5791 0.5077 0.2513 0.4712 0.5473 0.3959 0.2863 0.2391 0.2239 0.3576 0.4444 0.3554 0.7318 0.1775 0.3429 0.4345 0.2578 0.4131 0.3141 0.5962 0.5096 0.4047 0.5832 0.4115 0.8352 0.4247 0.2887 0.3272 0.2747 0.5334 0.5237 0.3231 0.2081 0.3389 0.3068 0.3116 0.2378 0.3440 0.4973 0.4146 0.3537 0.3500 0.5660 0.2805 0.2088 0.2205 0.3044 0.1911 0.4333 0.4414 0.5223 0.3144 1.3024 0.6751 0.2467 0.3780
0.5256 0.2721 0.5515 0.5514 0.5750 0.2522 0.4668 0.5640 0.4066 0.2775 0.2291 0.2223 0.3877 0.4236 0.3458 0.7251 0.1780 0.3340 0.5085 0.2631 0.4043 0.2920 0.4811 0.5068 0.3692 0.5656 0.4440 0.7687 0.5137 0.3309 0.3355 0.3040 0.5451 0.5272 0.3365 0.2144 0.4091 0.2941 0.2947 0.2381 0.3547 0.4889 0.4050 0.3417 0.3410 0.5401 0.2863 0.2038 0.2269 0.3643 0.1957 0.3589 0.4661 0.4881 0.3370 1.1318 0.6059 0.2432 0.3775
0.4905 0.3227 0.5799 0.5795 0.5631 0.2418 0.4998 0.5438 0.4450 0.2714 0.2177 0.1974 0.4074 0.4397 0.3579 0.7138 0.1754 0.3442 0.5469 0.2531 0.3899 0.2746 0.4303 0.4724 0.4122 0.5600 0.5073 0.7367 0.5333 0.3420 0.3776 0.3321 0.5866 0.5335 0.3719 0.2018 0.4296 0.2777 0.2903 0.2213 0.3514 0.4838 0.3895 0.3253 0.3337 0.5413 0.3267 0.1994 0.2207 0.3332 0.1856 0.4051 0.4271 0.5632 0.3888 0.9651 0.6683 0.2350 0.3538
0.4162 0.3021 0.5167 0.5594 0.5253 0.2406 0.5516 0.5422 0.4838 0.2510 0.2025 0.1904 0.4214 0.4594 0.3641 0.6812 0.1660 0.3304 0.4813 0.2281 0.3728 0.2938 0.4846 0.5017 0.4165 0.5272 0.5410 0.8187 0.4922 0.3431 0.3869 0.2908 0.5312 0.5364 0.3724 0.1966 0.4087 0.2859 0.2794 0.2113 0.3588 0.4764 0.3868 0.3096 0.3142 0.5424 0.2829 0.1889 0.2160 0.3078 0.1757 0.4451 0.4643 0.5621 0.3997 0.9802 0.7320 0.2366 0.3149
0.3618 0.3184 0.4552 0.5255 0.4746 0.2385 0.4991 0.5157 0.4073 0.2606 0.1868 0.1784 0.4042 0.4349 0.3719 0.6717 0.1707 0.4121 0.7224 0.2382 0.3800 0.3170 0.5301 0.5309 0.4351 0.4897 0.5120 0.8103 0.4490 0.3063 0.3700 0.2775 0.4648 0.4548 0.3483 0.1935 0.3760 0.2554 0.2644 0.1967 0.3265 0.4570 0.3613 0.2995 0.3103 0.5390 0.3598 0.1852 0.2230 0.3613 0.1812 0.4813 0.4713 0.5256 0.3863 1.0195 0.7152 0.2285 0.3115
0.3253 0.2713 0.4286 0.5402 0.5009 0.2344 0.4541 0.4795 0.4320 0.2336 0.1710 0.1745 0.4228 0.4310 0.3468 0.6596 0.1668 0.4044 0.5735 0.2183 0.3716 0.3063 0.4602 0.4613 0.3664 0.4775 0.4006 0.6837 0.4204 0.2781 0.3206 0.2427 0.5136 0.4263 0.2817 0.1782 0.3868 0.2662 0.2418 0.1814 0.3437 0.4652 0.3566 0.2842 0.3028 0.5005 0.3542 0.1673 0.2165 0.3114 0.1771 0.3971 0.4521 0.4404 0.2992 0.9513 0.5685 0.2167 0.3104
0.3353 0.2613 0.4589 0.5076 0.4765 0.2260 0.4855 0.5179 0.4711 0.2272 0.1657 0.1669 0.3715 0.3936 0.3155 0.6545 0.1680 0.3665 0.5001 0.2157 0.3656 0.2914 0.4712 0.4456 0.3696 0.4664 0.4206 0.7606 0.4043 0.2733 0.3666 0.2519 0.4835 0.4295 0.2914 0.1696 0.3981 0.2725 0.2433 0.1783 0.3296 0.4610 0.3391 0.2662 0.3015 0.4981 0.3135 0.1622 0.2205 0.3088 0.1700 0.3600 0.4547 0.4634 0.2869 1.0516 0.6076 0.2071 0.3365
0.4122 0.3779 0.5819 0.5394 0.5058 0.2214 0.4507 0.5011 0.4147 0.2268 0.1604 0.1553 0.3537 0.3836 0.3134 0.6480 0.1562 0.3930 0.6564 0.2087 0.3511 0.2724 0.4855 0.4317 0.4267 0.4635 0.4151 1.0584 0.4774 0.2611 0.5072 0.3781 0.5215 0.4327 0.3513 0.1877 0.3262 0.2401 0.2297 0.1667 0.3162 0.4519 0.3261 0.2564 0.2941 0.5101 0.3790 0.1588 0.2116 0.3518 0.1657 0.4703 0.3940 0.4240 0.4142 1.2162 0.7751 0.2136 0.3122
0.5739 0.3769 0.6293 0.6175 0.5645 0.2252 0.4416 0.4536 0.4703 0.2210 0.1600 0.1566 0.3831 0.3988 0.2991 0.6186 0.1543 0.4974 0.6330 0.2075 0.3485 0.3193 0.5429 0.4664 0.4307 0.4543 0.4712 0.9303 0.8087 0.3320 0.4875 0.4367 0.5653 0.4189 0.4050 0.1797 0.3573 0.2352 0.2270 0.1678 0.3349 0.4477 0.3348 0.2513 0.2875 0.5303 0.4035 0.1605 0.2100 0.3180 0.1708 0.5037 0.4604 0.4773 0.3940 1.1982 0.7848 0.2068 0.3171
0.5032 0.2793 0.5680 0.5977 0.5183 0.2182 0.4314 0.4745 0.4552 0.2148 0.1508 0.1504 0.4037 0.3966 0.3016 0.5835 0.1483 0.3562 0.4614 0.2081 0.3289 0.2900 0.4892 0.4597 0.3498 0.4363 0.4408 0.7195 0.7112 0.3803 0.3779 0.3430 0.5871 0.4185 0.3434 0.1737 0.3431 0.2307 0.2238 0.1596 0.3314 0.4404 0.3324 0.2523 0.2779 0.4688 0.2846 0.1429 0.2080 0.3019 0.1654 0.3604 0.4824 0.4476 0.3013 0.9665 0.5912 0.1935 0.3324
0.3416 0.2146 0.5373 0.5166 0.4387 0.2042 0.3991 0.4214 0.3759 0.2035 0.1424 0.1443 0.3505 0.3892 0.2879 0.5978 0.1454 0.2939 0.3751 0.1959 0.3308 0.2707 0.4442 0.4209 0.3136 0.4143 0.3949 0.5976 0.4482 0.3056 0.2953 0.2785 0.5638 0.3919 0.2805 0.1505 0.3112 0.2038 0.2140 0.1490 0.2819 0.4120 0.3295 0.2468 0.2769 0.4523 0.2449 0.1358 0.2015 0.2835 0.1565 0.3057 0.4254 0.4084 0.2262 0.8168 0.5094 0.1845 0.2971
0.3390 0.2091 0.4911 0.4916 0.4600 0.1982 0.3849 0.4327 0.3504 0.1988 0.1398 0.1440 0.3388 0.3839 0.2838 0.5677 0.1460 0.3072 0.4276 0.1876 0.3268 0.2807 0.4564 0.4368 0.3460 0.4458 0.4538 0.6826 0.4156 0.2438 0.2979 0.2404 0.5231 0.4171 0.2954 0.1518 0.3048 0.1839 0.2105 0.1476 0.2753 0.4286 0.3137 0.2380 0.2646 0.4596 0.2601 0.1370 0.1767 0.2726 0.1567 0.3131 0.4179 0.5216 0.2148 0.9434 0.6138 0.1823 0.2898
0.3988 0.2192 0.5062 0.5236 0.4813 0.2122 0.4200 0.4132 0.3721 0.1931 0.1357 0.1324 0.3066 0.3728 0.2669 0.5545 0.1405 0.3054 0.4048 0.1862 0.3225 0.2755 0.4151 0.4354 0.3158 0.4537 0.3998 0.7626 0.5028 0.2334 0.2984 0.2897 0.4844 0.4089 0.3451 0.1500 0.3725 0.1926 0.2021 0.1391 0.2628 0.4315 0.2974 0.2288 0.2565 0.4529 0.2634 0.1285 0.1775 0.3019 0.1547 0.3185 0.3924 0.4807 0.2234 0.9399 0.5878 0.1821 0.2857
0.5361 0.3150 0.6538 0.6163 0.5105 0.2031 0.4674 0.4377 0.3755 0.1915 0.1304 0.1362 0.3179 0.3645 0.2879 0.5553 0.1360 0.3570 0.6684 0.1846 0.3153 0.2862 0.4486 0.4583 0.3949 0.4352 0.4933 1.0363 0.6008 0.2676 0.3824 0.4074 0.5804 0.4202 0.4153 0.1612 0.4097 0.1990 0.1937 0.1365 0.2758 0.4380 0.2956 0.2245 0.2529 0.4615 0.3663 0.1354 0.1905 0.3294 0.1603 0.4213 0.3954 0.5040 0.3347 1.1092 0.8717 0.1928 0.2998
0.5881 0.2958 0.7483 0.6045 0.5331 0.2038 0.4399 0.4333 0.3388 0.1947 0.1334 0.1344 0.3308 0.3517 0.3098 0.5720 0.1383 0.3674 0.8186 0.1907 0.3199 0.2907 0.4335 0.4425 0.4256 0.4072 0.5955 0.9501 0.7085 0.3240 0.3801 0.4209 0.6003 0.4247 0.4295 0.1664 0.4157 0.1910 0.1947 0.1369 0.2450 0.3989 0.2913 0.2151 0.2601 0.4855 0.4205 0.1417 0.1734 0.3265 0.1664 0.4681 0.4625 0.5637 0.3074 1.1348 0.9572 0.1965 0.3146
0.5355 0.2727 0.6877 0.5640 0.5150 0.2130 0.4863 0.5025 0.3889 0.1862 0.1231 0.1260 0.4512 0.3680 0.3488 0.5470 0.1472 0.4071 0.7639 0.1828 0.3026 0.3217 0.4943 0.4126 0.4100 0.4015 0.5532 0.9196 0.7149 0.4149 0.3691 0.3720 0.5945 0.4027 0.4134 0.1616 0.3531 0.2376 0.1895 0.1307 0.2849 0.3911 0.2880 0.2206 0.2605 0.4984 0.4093 0.1298 0.1607 0.3417 0.1711 0.4567 0.4816 0.5267 0.3004 0.9946 0.8174 0.1841 0.2707
0.4361 0.2848 0.5612 0.4964 0.4398 0.1976 0.4212 0.5382 0.3715 0.1793 0.1224 0.1329 0.4636 0.3914 0.3374 0.5348 0.1562 0.4006 0.5955 0.1767 0.2947 0.2963 0.5358 0.4157 0.3694 0.3991 0.4341 0.8439 0.6150 0.4152 0.3567 0.3288 0.5057 0.3267 0.3439 0.1536 0.2797 0.2294 0.1874 0.1278 0.3223 0.4189 0.2940 0.2171 0.2534 0.4953 0.3818 0.1268 0.1774 0.3083 0.1563 0.4232 0.4548 0.4405 0.3044 0.9369 0.6529 0.1777 0.2569
0.3337 0.2799 0.4410 0.4513 0.4287 0.1818 0.3682 0.5046 0.3109 0.1742 0.1179 0.1322 0.3238 0.3609 0.3277 0.5078 0.1552 0.3476 0.6255 0.1752 0.2918 0.2758 0.5280 0.4445 0.3703 0.3793 0.4462 0.9506 0.5048 0.3403 0.3631 0.2761 0.4316 0.3163 0.2840 0.1470 0.2866 0.1900 0.1795 0.1196 0.2694 0.3686 0.2772 0.2055 0.2393 0.4498 0.3371 0.1317 0.1784 0.3351 0.1492 0.4391 0.4942 0.4100 0.3013 1.1082 0.7152 0.1783 0.2742
0.2876 0.2880 0.4155 0.4704 0.4014 0.1747 0.3798 0.4794 0.3306 0.1672 0.1174 0.1270 0.2785 0.3237 0.2936 0.5002 0.1482 0.3005 0.4900 0.1678 0.2967 0.2684 0.4896 0.4876 0.3850 0.4123 0.3991 1.3764 0.4441 0.2899 0.4224 0.2491 0.4627 0.3364 0.2552 0.1405 0.2650 0.1977 0.1782 0.1209 0.2551 0.3662 0.2648 0.2052 0.2319 0.4282 0.2778 0.1258 0.1702 0.3299 0.1449 0.4772 0.4603 0.3776 0.3552 1.5288 0.8925 0.1764 0.3498
0.2785 0.3180 0.4056 0.4382 0.3922 0.1749 0.3982 0.5070 0.3684 0.1673 0.1150 0.1272 0.3428 0.3267 0.2760 0.4945 0.1581 0.2907 0.4819 0.1635 0.3052 0.2860 0.5653 0.4890 0.4498 0.4587 0.4339 1.6323 0.3990 0.2283 0.4414 0.2406 0.4277 0.4311 0.2471 0.1387 0.2844 0.1922 0.1750 0.1223 0.2698 0.3664 0.2725 0.1972 0.2308 0.4252 0.2740 0.1228 0.1746 0.3316 0.1515 0.5299 0.4662 0.4421 0.4366 1.8377 1.1040 0.1745 0.3916
0.2924 0.2764 0.4187 0.4201 0.4082 0.1706 0.3820 0.4423 0.3487 0.1625 0.1145 0.1163 0.4148 0.3416 0.2478 0.4733 0.1296 0.2932 0.4049 0.1621 0.2903 0.2523 0.5144 0.4267 0.3655 0.4278 0.3883 1.2166 0.3601 0.2185 0.3498 0.2223 0.4542 0.4448 0.2413 0.1308 0.2887 0.1784 0.1685 0.1198 0.2691 0.3611 0.2719 0.1962 0.2265 0.4263 0.2600 0.1131 0.1671 0.2790 0.1362 0.4024 0.3956 0.3971 0.3810 1.3811 0.8694 0.1585 0.3444
0.3159 0.2536 0.3971 0.4077 0.3541 0.1668 0.3705 0.4747 0.3412 0.1628 0.1061 0.1144 0.4136 0.3311 0.2545 0.4613 0.1253 0.2999 0.3620 0.1544 0.2760 0.2215 0.5069 0.4172 0.3396 0.4267 0.3483 1.0506 0.3791 0.2418 0.3052 0.2004 0.4407 0.4297 0.2260 0.1225 0.2615 0.1604 0.1593 0.1133 0.2764 0.3560 0.2619 0.1864 0.2230 0.4352 0.2395 0.1092 0.1522 0.2909 0.1277 0.3503 0.3587 0.3806 0.3459 1.0860 0.7490 0.1484 0.2994
0.2764 0.2232 0.3521 0.4686 0.3950 0.1726 0.3857 0.4629 0.3416 0.1543 0.1068 0.1170 0.3164 0.3050 0.2508 0.4492 0.1256 0.2888 0.4491 0.1649 0.2766 0.2186 0.4509 0.4370 0.3123 0.3870 0.3624 0.8488 0.3803 0.2650 0.2738 0.1762 0.4196 0.4404 0.2385 0.1328 0.2628 0.1741 0.1622 0.1133 0.2655 0.3552 0.2521 0.1860 0.2172 0.4207 0.2604 0.1112 0.1511 0.2710 0.1325 0.3158 0.3997 0.3601 0.2773 0.9151 0.6002 0.1515 0.3022
0.2486 0.2091 0.3390 0.4766 0.4142 0.1682 0.3831 0.4033 0.3112 0.1574 0.1040 0.1141 0.2811 0.2989 0.2322 0.4383 0.1225 0.3018 0.3980 0.1586 0.2740 0.1995 0.4115 0.4486 0.2773 0.3721 0.4073 0.7094 0.3680 0.2659 0.2820 0.1864 0.4176 0.4061 0.2459 0.1275 0.2762 0.1698 0.1524 0.1092 0.2423 0.3578 0.2511 0.1774 0.2087 0.4178 0.2812 0.1064 0.1475 0.3006 0.1290 0.2675 0.3899 0.3892 0.2267 0.9028 0.5815 0.1428 0.2964
0.2832 0.2611 0.3889 0.4782 0.3652 0.1595 0.3541 0.3829 0.3605 0.1531 0.1060 0.1081 0.2796 0.2843 0.2266 0.4385 0.1213 0.2922 0.5064 0.1624 0.2699 0.2459 0.4244 0.4091 0.2911 0.3501 0.4364 0.6921 0.3574 0.2327 0.3247 0.2645 0.4164 0.3737 0.2312 0.1216 0.2484 0.1830 0.1538 0.1120 0.2555 0.3528 0.2343 0.1758 0.2043 0.3937 0.2647 0.1101 0.1568 0.3098 0.1365 0.3054 0.4317 0.4088 0.2450 0.8668 0.6277 0.1472 0.2694
0.4512 0.2747 0.4947 0.4013 0.4210 0.1620 0.3716 0.3509 0.4072 0.1521 0.1041 0.1070 0.2845 0.2788 0.2141 0.4278 0.1286 0.2717 0.3949 0.1545 0.2671 0.2346 0.4617 0.3687 0.2672 0.3454 0.3681 0.6514 0.4111 0.2023 0.3721 0.3567 0.4157 0.3764 0.2700 0.1225 0.3272 0.1777 0.1527 0.1111 0.2556 0.3347 0.2337 0.1719 0.2031 0.3953 0.2448 0.1047 0.1665 0.2866 0.1286 0.2821 0.3928 0.3550 0.2435 0.7733 0.5901 0.1459 0.2438
0.5761 0.2308 0.5956 0.4083 0.4499 0.1610 0.4156 0.3772 0.3947 0.1442 0.1033 0.1040 0.3275 0.2927 0.2256 0.4148 0.1210 0.3237 0.4244 0.1491 0.2571 0.2255 0.4010 0.3851 0.2693 0.3577 0.3887 0.6395 0.4989 0.2032 0.3256 0.3582 0.4306 0.4033 0.3434 0.1175 0.3491 0.1646 0.1460 0.1112 0.2462 0.3248 0.2312 0.1728 0.1999 0.3880 0.2542 0.1060 0.1677 0.2871 0.1220 0.3043 0.3914 0.3701 0.2381 0.8029 0.6390 0.1459 0.2361
0.4109 0.1798 0.5011 0.4099 0.4390 0.1571 0.3635 0.3783 0.3707 0.1445 0.1018 0.1109 0.4347 0.3230 0.2489 0.4107 0.1135 0.3592 0.3616 0.1408 0.2625 0.2365 0.3669 0.3717 0.2560 0.3862 0.3410 0.5991 0.4090 0.2019 0.2456 0.2465 0.4544 0.4054 0.3041 0.1140 0.2598 0.1554 0.1443 0.1078 0.2729 0.3319 0.2461 0.1700 0.2070 0.3943 0.2872 0.1007 0.1662 0.2595 0.1187 0.2809 0.3535 0.3727 0.2160 0.8109 0.5713 0.1376 0.2467
0.3017 0.1640 0.3932 0.3917 0.4420 0.1501 0.3167 0.3736 0.3163 0.1419 0.0959 0.1099 0.5330 0.3373 0.2531 0.3918 0.1217 0.3307 0.3409 0.1361 0.2522 0.2318 0.3921 0.3782 0.2290 0.3789 0.3220 0.5297 0.3479 0.2135 0.2213 0.1880 0.3991 0.3844 0.2605 0.1138 0.2569 0.1398 0.1383 0.1038 0.2693 0.3298 0.2527 0.1651 0.2015 0.3898 0.3101 0.0948 0.1504 0.2290 0.1196 0.2433 0.3868 0.3422 0.2035 0.7008 0.4518 0.1303 0.2346
0.2264 0.1846 0.3194 0.4335 0.4162 0.1532 0.3937 0.4699 0.4341 0.1449 0.0973 0.1072 0.5289 0.3346 0.2443 0.3912 0.1217 0.2679 0.3067 0.1399 0.2380 0.2250 0.4429 0.3901 0.2284 0.3522 0.3475 0.5223 0.3447 0.1956 0.2457 0.1916 0.3991 0.4017 0.2365 0.1126 0.2904 0.1709 0.1415 0.1070 0.3181 0.3542 0.2529 0.1699 0.1922 0.3632 0.2273 0.1008 0.1582 0.2650 0.1214 0.2494 0.4064 0.3407 0.2018 0.6403 0.4270 0.1342 0.2172
0.2138 0.2330 0.3385 0.4281 0.3476 0.1519 0.3550 0.4138 0.3814 0.1390 0.0934 0.1043 0.3837 0.2644 0.1982 0.3833 0.1227 0.2563 0.3471 0.1355 0.2378 0.2189 0.3902 0.3830 0.2706 0.3418 0.3421 0.6380 0.3652 0.1930 0.2751 0.2155 0.4082 0.2899 0.2474 0.1108 0.2844 0.1560 0.1375 0.1006 0.2826 0.3324 0.2255 0.1574 0.1971 0.3371 0.2028 0.0994 0.1508 0.2403 0.1185 0.3018 0.4007 0.3151 0.2796 0.6729 0.5257 0.1330 0.2149
0.2258 0.2370 0.3297 0.3913 0.3464 0.1454 0.3111 0.3335 0.2933 0.1348 0.0890 0.1029 0.2647 0.2349 0.1780 0.3612 0.1219 0.2415 0.2973 0.1293 0.2340 0.2227 0.4194 0.3648 0.2836 0.3252 0.3538 0.7731 0.3282 0.2087 0.2793 0.1984 0.4116 0.2675 0.2162 0.1042 0.2900 0.1399 0.1332 0.0952 0.2136 0.3031 0.2085 0.1510 0.1876 0.3323 0.1961 0.0950 0.1640 0.2371 0.1123 0.3080 0.3770 0.3221 0.2977 0.8293 0.6439 0.1272 0.2388
0.2671 0.2260 0.3822 0.4191 0.3710 0.1467 0.2941 0.3516 0.2695 0.1326 0.0900 0.0949 0.2203 0.2400 0.1831 0.3557 0.1184 0.2606 0.4307 0.1304 0.2403 0.2342 0.4135 0.3222 0.2756 0.3026 0.4005 0.7265 0.3629 0.2090 0.2559 0.2264 0.4461 0.3019 0.2314 0.1063 0.2805 0.1340 0.1306 0.0898 0.1981 0.2866 0.2048 0.1552 0.1849 0.3457 0.2221 0.1023 0.1461 0.2260 0.1069 0.2888 0.3564 0.3762 0.2450 0.9157 0.7035 0.1290 0.2697
0.2885 0.1825 0.3968 0.4295 0.4052 0.1512 0.3033 0.3748 0.2543 0.1276 0.0875 0.0967 0.2310 0.2341 0.1891 0.3607 0.1181 0.2902 0.5175 0.1287 0.2282 0.2201 0.3889 0.3478 0.2446 0.3069 0.4387 0.5270 0.4723 0.2122 0.2475 0.2169 0.4550 0.3484 0.2486 0.1108 0.2448 0.1307 0.1218 0.0895 0.2028 0.2898 0.2017 0.1464 0.1873 0.3733 0.2564 0.0972 0.1435 0.2346 0.1096 0.2504 0.3594 0.4360 0.1722 0.7936 0.5785 0.1236 0.2407
0.2406 0.2125 0.3654 0.4250 0.4852 0.1466 0.3175 0.3793 0.2379 0.1281 0.0885 0.0917 0.2327 0.2395 0.1889 0.3523 0.1393 0.2977 0.4278 0.1301 0.2244 0.2371 0.4209 0.3784 0.2623 0.3871 0.3928 0.7453 0.4595 0.2222 0.3379 0.2138 0.4079 0.3782 0.2472 0.1103 0.2723 0.1307 0.1247 0.0901 0.1935 0.2981 0.1965 0.1502 0.1953 0.3909 0.2388 0.0944 0.1482 0.2518 0.1077 0.3351 0.3697 0.4108 0.2647 0.7947 0.5195 0.1270 0.2265
0.2145 0.2668 0.3775 0.4185 0.4651 0.1431 0.3905 0.3897 0.3547 0.1301 0.0878 0.0924 0.2581 0.2267 0.1875 0.3644 0.1174 0.2236 0.4096 0.1207 0.2218 0.2208 0.4167 0.3747 0.3123 0.3576 0.3182 1.0170 0.3957 0.2105 0.3716 0.2384 0.4107 0.4021 0.2715 0.1149 0.3538 0.1632 0.1248 0.0921 0.2224 0.2877 0.1996 0.1407 0.1910 0.3300 0.2013 0.0909 0.1303 0.2531 0.1018 0.4148 0.3875 0.2991 0.3462 0.9840 0.6258 0.1333 0.2236
0.2167 0.2605 0.3395 0.4269 0.4673 0.1375 0.3835 0.3965 0.4135 0.1276 0.0852 0.0886 0.3180 0.2480 0.1874 0.3570 0.0987 0.2327 0.2769 0.1214 0.2178 0.1811 0.3166 0.3590 0.2933 0.3089 0.3343 0.8739 0.3426 0.1775 0.3233 0.2205 0.4191 0.4405 0.2205 0.1113 0.3331 0.1766 0.1200 0.0963 0.2448 0.2848 0.1961 0.1395 0.1670 0.3080 0.1710 0.0857 0.1201 0.2614 0.1009 0.3107 0.3744 0.3059 0.3053 0.9437 0.5805 0.1240 0.2164
0.2088 0.2108 0.2971 0.3656 0.4023 0.1294 0.2970 0.3515 0.3275 0.1227 0.0825 0.0888 0.4120 0.2955 0.2479 0.3281 0.1227 0.2768 0.3148 0.1205 0.2128 0.1762 0.3800 0.3420 0.2548 0.2769 0.3230 0.6748 0.3102 0.1565 0.2721 0.1882 0.3577 0.3230 0.1782 0.1048 0.2875 0.1460 0.1209 0.0909 0.2430 0.2909 0.2072 0.1385 0.1699 0.3710 0.2431 0.0848 0.1225 0.2758 0.1038 0.2676 0.3638 0.3272 0.2171 0.8466 0.4977 0.1215 0.2163
0.2181 0.1514 0.2694 0.3782 0.3853 0.1274 0.2558 0.3598 0.3201 0.1199 0.0804 0.0908 0.4655 0.3020 0.2848 0.3200 0.1445 0.4818 0.5097 0.1337 0.2090 0.1837 0.3635 0.3640 0.2033 0.2779 0.3349 0.4501 0.3286 0.1628 0.2184 0.1566 0.3586 0.2524 0.1607 0.0993 0.3055 0.1350 0.1127 0.0848 0.2525 0.2881 0.2033 0.1434 0.1880 0.4974 0.5738 0.0843 0.1302 0.2696 0.1053 0.2134 0.3456 0.3228 0.1593 0.6677 0.3945 0.1115 0.2159
0.2015 0.1884 0.2677 0.3607 0.3696 0.1325 0.2492 0.3592 0.2781 0.1154 0.0785 0.0857 0.4722 0.2682 0.2397 0.3148 0.1417 0.6019 0.6084 0.1337 0.2079 0.1886 0.3863 0.3141 0.2394 0.3408 0.3555 0.6275 0.2953 0.1677 0.2957 0.1606 0.3697 0.2685 0.1530 0.0980 0.2653 0.1174 0.1111 0.0805 0.2494 0.2859 0.1886 0.1387 0.1896 0.5671 0.6765 0.0916 0.1343 0.2523 0.1048 0.2353 0.3437 0.3125 0.2722 0.7220 0.5078 0.1102 0.2407
0.1954 0.2062 0.2710 0.3616 0.3136 0.1222 0.2906 0.3740 0.2647 0.1119 0.0769 0.0904 0.3750 0.2431 0.2055 0.2904 0.1250 0.4378 0.3749 0.1133 0.1978 0.2033 0.4544 0.3074 0.2410 0.3380 0.2994 0.6742 0.2748 0.1898 0.3012 0.1609 0.3324 0.2875 0.1605 0.0926 0.2308 0.1341 0.1126 0.0787 0.2403 0.2721 0.1897 0.1331 0.1696 0.4579 0.4745 0.0842 0.1167 0.2178 0.0981 0.2576 0.3455 0.2759 0.3130 0.7507 0.4748 0.1103 0.2489
0.1942 0.1703 0.2754 0.4009 0.3812 0.1183 0.3134 0.3631 0.3185 0.1098 0.0782 0.0889 0.2678 0.2293 0.1872 0.2948 0.1046 0.2821 0.3963 0.1141 0.1990 0.1826 0.3961 0.3793 0.2264 0.3049 0.3502 0.6246 0.2950 0.1822 0.2703 0.1390 0.3906 0.3405 0.1735 0.0867 0.2798 0.1525 0.1067 0.0823 0.2384 0.2781 0.1755 0.1269 0.1624 0.3634 0.2948 0.0856 0.1083 0.2288 0.0958 0.2516 0.3426 0.3245 0.2172 0.8331 0.5017 0.1070 0.2521
0.2015 0.1211 0.3262 0.3616 0.3979 0.1164 0.3007 0.3499 0.3225 0.1058 0.0749 0.0858 0.2338 0.2086 0.1653 0.2965 0.0971 0.2064 0.3121 0.1067 0.1838 0.1667 0.3036 0.3990 0.1873 0.2670 0.3123 0.3930 0.3166 0.1642 0.2040 0.1398 0.3990 0.3481 0.1849 0.0894 0.2648 0.1491 0.1026 0.0797 0.2229 0.2683 0.1699 0.1219 0.1593 0.3120 0.2025 0.0787 0.0964 0.2393 0.0925 0.1931 0.3570 0.3204 0.1290 0.6240 0.3557 0.0984 0.2146
0.2598 0.1212 0.4114 0.3599 0.4681 0.1255 0.3225 0.3644 0.2913 0.1076 0.0728 0.0833 0.2275 0.1953 0.1585 0.2876 0.0883 0.2111 0.2669 0.1095 0.1815 0.1648 0.2946 0.3473 0.1863 0.2393 0.2995 0.3514 0.3954 0.1711 0.1877 0.1801 0.4493 0.3595 0.2239 0.0961 0.2415 0.1540 0.1018 0.0773 0.2098 0.2588 0.1670 0.1204 0.1501 0.2978 0.1955 0.0755 0.1070 0.2140 0.0933 0.1930 0.3456 0.2932 0.1243 0.5166 0.3240 0.1003 0.1820
0.2384 0.1301 0.3829 0.3564 0.3998 0.1206 0.2724 0.3464 0.2526 0.1019 0.0721 0.0789 0.2183 0.1850 0.1447 0.2705 0.0918 0.2365 0.3203 0.1070 0.1826 0.1897 0.3974 0.3048 0.1832 0.2556 0.2989 0.3439 0.3596 0.1650 0.1911 0.1941 0.3970 0.2965 0.1864 0.0919 0.2134 0.1387 0.0955 0.0765 0.1989 0.2525 0.1587 0.1215 0.1424 0.2927 0.2259 0.0756 0.1274 0.1994 0.0943 0.2015 0.3282 0.3084 0.1269 0.5177 0.3263 0.0957 0.1728
0.2380 0.1398 0.3433 0.3406 0.3473 0.1212 0.2535 0.3240 0.2282 0.1007 0.0693 0.0785 0.2338 0.1765 0.1412 0.2664 0.0825 0.2074 0.3246 0.0996 0.1767 0.2096 0.4056 0.3154 0.2303 0.2541 0.3206 0.3612 0.3337 0.1831 0.1996 0.1856 0.3896 0.2652 0.1764 0.0921 0.1744 0.1194 0.0934 0.0708 0.2006 0.2450 0.1519 0.1133 0.1322 0.2516 0.1791 0.0761 0.1123 0.2314 0.1006 0.2872 0.3519 0.3191 0.1449 0.5638 0.3708 0.0962 0.1977
0.2147 0.1320 0.2814 0.3347 0.4101 0.1245 0.2883 0.4007 0.2226 0.0982 0.0681 0.0766 0.2242 0.1868 0.1449 0.2658 0.0921 0.2059 0.3030 0.0980 0.1734 0.2162 0.4550 0.3616 0.2190 0.2642 0.3012 0.3955 0.2698 0.1872 0.2281 0.1481 0.3663 0.2774 0.1643 0.0911 0.1908 0.1263 0.0952 0.0716 0.1864 0.2466 0.1539 0.1111 0.1369 0.2565 0.2180 0.0708 0.1279 0.2236 0.0999 0.2959 0.3833 0.2726 0.1685 0.5491 0.3477 0.0952 0.1994
0.2155 0.1228 0.2583 0.2883 0.3861 0.1243 0.2587 0.3371 0.2347 0.0955 0.0661 0.0743 0.2206 0.1794 0.1468 0.2529 0.1021 0.2365 0.2664 0.0990 0.1711 0.1934 0.3960 0.3545 0.1826 0.2524 0.2447 0.3545 0.2522 0.1739 0.1980 0.1290 0.3778 0.2544 0.1589 0.0856 0.1810 0.1247 0.0909 0.0700 0.1744 0.2166 0.1534 0.1112 0.1363 0.2454 0.2337 0.0679 0.1348 0.2611 0.0943 0.2333 0.3383 0.2409 0.1466 0.4787 0.3016 0.0890 0.1758
0.2558 0.1352 0.2837 0.2990 0.3511 0.1121 0.2586 0.2991 0.2686 0.0950 0.0657 0.0712 0.2355 0.1751 0.1461 0.2579 0.0953 0.1903 0.2076 0.0928 0.1685 0.1813 0.3091 0.3560 0.1829 0.2478 0.2392 0.3880 0.2814 0.1428 0.1840 0.1466 0.3549 0.2430 0.1766 0.0784 0.2102 0.1173 0.0902 0.0683 0.2017 0.2366 0.1459 0.1058 0.1401 0.2401 0.1764 0.0694 0.1238 0.2126 0.0847 0.2165 0.3312 0.2607 0.1533 0.4685 0.3330 0.0923 0.1532
0.2443 0.1499 0.2645 0.2958 0.3156 0.1028 0.2490 0.3071 0.2530 0.0926 0.0646 0.0708 0.2307 0.1694 0.1345 0.2485 0.0862 0.2297 0.3282 0.0933 0.1681 0.1739 0.3230 0.3585 0.1984 0.2240 0.2864 0.4261 0.2507 0.1254 0.2022 0.1502 0.2832 0.2542 0.1706 0.0778 0.1983 0.1183 0.0876 0.0676 0.1954 0.2338 0.1426 0.1064 0.1296 0.2712 0.2589 0.0676 0.1203 0.2371 0.0859 0.2227 0.3382 0.2788 0.1523 0.5477 0.4184 0.0908 0.1533
0.2166 0.1411 0.2541 0.3406 0.3388 0.1028 0.2672 0.3061 0.3444 0.0970 0.0651 0.0707 0.2545 0.1718 0.1422 0.2451 0.1133 0.2628 0.3116 0.0992 0.1652 0.1935 0.4296 0.3596 0.1892 0.2261 0.2967 0.3070 0.2387 0.1274 0.1914 0.1577 0.2984 0.2539 0.1691 0.0778 0.2451 0.1323 0.0892 0.0723 0.2212 0.2460 0.1402 0.1047 0.1315 0.3215 0.2657 0.0698 0.1466 0.2818 0.0927 0.2066 0.3351 0.2791 0.1318 0.4615 0.3389 0.0899 0.1614
0.1621 0.1155 0.2559 0.3189 0.3664 0.1106 0.2615 0.2615 0.2629 0.0888 0.0618 0.0680 0.2422 0.1704 0.1502 0.2304 0.1200 0.1997 0.3708 0.0984 0.1589 0.1907 0.5169 0.3587 0.1630 0.2335 0.2758 0.3111 0.2176 0.1460 0.1622 0.1409 0.3356 0.2704 0.1569 0.0778 0.2055 0.1105 0.0848 0.0652 0.1869 0.2276 0.1424 0.1040 0.1298 0.3141 0.2225 0.0675 0.1334 0.3023 0.0915 0.2082 0.2818 0.2535 0.1148 0.4283 0.2985 0.0831 0.1603
0.1513 0.1322 0.2619 0.2635 0.3828 0.1100 0.2616 0.2823 0.2389 0.0870 0.0600 0.0684 0.2292 0.1611 0.1255 0.2214 0.0778 0.1673 0.3308 0.0865 0.1483 0.1839 0.3602 0.2599 0.1876 0.2292 0.2438 0.3714 0.2472 0.1465 0.1607 0.1453 0.2976 0.2679 0.1757 0.0784 0.2058 0.1103 0.0786 0.0639 0.1874 0.2122 0.1382 0.0984 0.1206 0.2453 0.2086 0.0621 0.1017 0.1766 0.0831 0.2309 0.2448 0.2485 0.1473 0.4641 0.3260 0.0814 0.1486
0.1595 0.1378 0.2532 0.2990 0.4013 0.1178 0.2359 0.2707 0.2132 0.0817 0.0604 0.0685 0.2140 0.1673 0.1191 0.2125 0.0942 0.1784 0.2599 0.0847 0.1472 0.1736 0.3411 0.3128 0.1997 0.2353 0.2498 0.4440 0.2618 0.1461 0.1700 0.1398 0.3325 0.2775 0.1605 0.0722 0.1934 0.1092 0.0788 0.0591 0.1757 0.2019 0.1351 0.0953 0.1149 0.2227 0.2119 0.0612 0.1234 0.2733 0.0859 0.2407 0.2694 0.2894 0.1688 0.4825 0.3811 0.0793 0.1342
0.1618 0.1377 0.2560 0.3053 0.3483 0.1095 0.2215 0.2733 0.2355 0.0800 0.0555 0.0621 0.2565 0.1665 0.1312 0.2180 0.0921 0.1811 0.2493 0.0819 0.1467 0.1610 0.2976 0.2747 0.2169 0.2329 0.2544 0.5325 0.2775 0.1322 0.1966 0.1216 0.3775 0.2553 0.1591 0.0690 0.2208 0.0958 0.0742 0.0589 0.1844 0.2127 0.1299 0.0930 0.1150 0.2299 0.1847 0.0602 0.0947 0.2270 0.0780 0.2642 0.2372 0.3100 0.1686 0.5786 0.4546 0.0805 0.1449
0.1551 0.1177 0.2405 0.3147 0.2822 0.0998 0.2109 0.2633 0.2190 0.0777 0.0540 0.0613 0.2431 0.1585 0.1385 0.2002 0.0765 0.1759 0.2477 0.0774 0.1377 0.1357 0.2601 0.2559 0.1656 0.2485 0.2667 0.4140 0.2985 0.1215 0.1717 0.1170 0.3643 0.2193 0.1469 0.0661 0.1941 0.0937 0.0706 0.0589 0.1776 0.2009 0.1237 0.0890 0.1097 0.2172 0.1514 0.0604 0.0764 0.1684 0.0667 0.2113 0.2134 0.3241 0.1351 0.4997 0.3843 0.0763 0.1310
0.1448 0.1249 0.2605 0.3462 0.3129 0.0978 0.2100 0.2606 0.2333 0.0777 0.0553 0.0627 0.2056 0.1558 0.1402 0.1957 0.0803 0.1481 0.2246 0.0784 0.1374 0.1324 0.2462 0.2704 0.1717 0.2145 0.2751 0.3535 0.3339 0.1147 0.1527 0.1397 0.3548 0.2097 0.1450 0.0689 0.2251 0.1006 0.0714 0.0583 0.1773 0.1973 0.1170 0.0838 0.1043 0.1990 0.1469 0.0596 0.0910 0.1828 0.0690 0.1890 0.2136 0.3215 0.1221 0.5167 0.3978 0.0747 0.1259
0.1304 0.1278 0.2721 0.3143 0.2902 0.0911 0.2224 0.2562 0.2688 0.0751 0.0565 0.0611 0.1975 0.1350 0.1188 0.1958 0.1080 0.1859 0.2198 0.0758 0.1301 0.1298 0.2949 0.2393 0.1765 0.1935 0.2992 0.3619 0.2904 0.1251 0.1337 0.1423 0.3618 0.2080 0.1366 0.0669 0.2022 0.1022 0.0683 0.0594 0.1852 0.1892 0.1144 0.0880 0.1057 0.2335 0.2253 0.0569 0.1002 0.2210 0.0654 0.1991 0.2207 0.3053 0.1252 0.5921 0.4607 0.0741 0.1324
0.1179 0.1226 0.2600 0.2433 0.2414 0.0888 0.2266 0.2592 0.2981 0.0737 0.0502 0.0589 0.2521 0.1501 0.1220 0.1823 0.0807 0.2296 0.2448 0.0715 0.1250 0.1263 0.2644 0.2634 0.1665 0.2232 0.2288 0.4381 0.1910 0.1743 0.1526 0.1244 0.3220 0.2188 0.1166 0.0622 0.1718 0.1053 0.0666 0.0562 0.1968 0.1841 0.1210 0.0807 0.1017 0.2308 0.2242 0.0560 0.0874 0.1854 0.0634 0.2124 0.2331 0.2083 0.1761 0.4540 0.3788 0.0678 0.1420
0.1356 0.1636 0.2549 0.3111 0.2857 0.0938 0.2029 0.2389 0.2204 0.0750 0.0517 0.0564 0.2386 0.1981 0.1589 0.1838 0.0845 0.2317 0.4505 0.0776 0.1265 0.1200 0.2587 0.2767 0.2163 0.3027 0.2868 0.7279 0.2329 0.2074 0.2218 0.1362 0.3402 0.2501 0.1139 0.0696 0.1580 0.0908 0.0635 0.0549 0.1628 0.1753 0.1275 0.0817 0.1027 0.1999 0.2301 0.0710 0.0917 0.2288 0.0665 0.3133 0.3076 0.2402 0.2940 0.6023 0.5310 0.0741 0.1764
0.1252 0.1538 0.2473 0.3146 0.2574 0.0840 0.1704 0.2105 0.1571 0.0698 0.0504 0.0532 0.1572 0.1794 0.1364 0.1783 0.0946 0.1754 0.2852 0.0739 0.1242 0.1280 0.2873 0.2950 0.2159 0.2610 0.3511 0.6239 0.2479 0.1766 0.1999 0.1307 0.3140 0.2181 0.1226 0.0638 0.1430 0.0758 0.0630 0.0486 0.1274 0.1669 0.1163 0.0765 0.0934 0.1904 0.2047 0.0622 0.1142 0.2378 0.0731 0.2557 0.3187 0.2869 0.2523 0.5705 0.5149 0.0711 0.1587
0.1363 0.1615 0.2548 0.2683 0.2863 0.0813 0.1582 0.2079 0.1612 0.0667 0.0498 0.0526 0.1465 0.1274 0.0936 0.1707 0.0747 0.1740 0.1951 0.0659 0.1240 0.1078 0.2471 0.2653 0.1828 0.2123 0.2824 0.4813 0.2619 0.1517 0.1722 0.1504 0.2816 0.2109 0.1364 0.0639 0.1700 0.0800 0.0603 0.0488 0.1296 0.1595 0.1053 0.0774 0.0925 0.2216 0.1863 0.0500 0.0869 0.1585 0.0599 0.2090 0.2170 0.2654 0.1875 0.5176 0.4133 0.0692 0.1340
0.1607 0.1579 0.2437 0.2572 0.2838 0.0800 0.1779 0.2194 0.1568 0.0665 0.0481 0.0518 0.1650 0.1286 0.1029 0.1660 0.0847 0.2075 0.3210 0.0727 0.1213 0.1380 0.2873 0.2676 0.1752 0.1905 0.2556 0.4264 0.3082 0.1401 0.1558 0.1585 0.2679 0.2502 0.1624 0.0598 0.1627 0.0789 0.0588 0.0495 0.1292 0.1536 0.1054 0.0741 0.0909 0.2363 0.2191 0.0531 0.1018 0.1948 0.0669 0.1952 0.2218 0.2814 0.1362 0.5461 0.4051 0.0649 0.1228
0.1741 0.1197 0.2142 0.2208 0.2785 0.0817 0.1870 0.2157 0.1769 0.0635 0.0433 0.0485 0.1676 0.1225 0.0987 0.1570 0.0724 0.1693 0.2586 0.0680 0.1169 0.1380 0.2535 0.2753 0.1391 0.2204 0.2143 0.2996 0.2817 0.1410 0.1406 0.1383 0.2616 0.2320 0.1540 0.0578 0.1601 0.0772 0.0579 0.0467 0.1233 0.1464 0.1019 0.0703 0.0840 0.1904 0.1650 0.0486 0.0960 0.1977 0.0648 0.1500 0.2240 0.2656 0.1015 0.4449 0.2969 0.0613 0.1203
0.1796 0.1144 0.1866 0.2461 0.2586 0.0818 0.2110 0.2211 0.1662 0.0618 0.0420 0.0490 0.1362 0.1220 0.0979 0.1541 0.0637 0.1418 0.1738 0.0611 0.1093 0.1131 0.2071 0.2208 0.1254 0.2092 0.1968 0.3275 0.2857 0.1351 0.1510 0.1388 0.2335 0.1859 0.1774 0.0563 0.1986 0.0710 0.0561 0.0447 0.1123 0.1515 0.0982 0.0679 0.0801 0.1722 0.1467 0.0450 0.0811 0.1472 0.0557 0.1322 0.1899 0.2420 0.0990 0.4137 0.2965 0.0609 0.1143
0.2631 0.2134 0.2567 0.2674 0.2760 0.0870 0.1962 0.2308 0.1850 0.0635 0.0429 0.0467 0.1379 0.1135 0.1029 0.1634 0.0571 0.1914 0.3189 0.0632 0.1098 0.1131 0.2035 0.2240 0.2154 0.1872 0.2582 0.6602 0.3759 0.1189 0.2462 0.2301 0.2408 0.1660 0.1932 0.0629 0.1957 0.0761 0.0555 0.0442 0.1242 0.1572 0.0911 0.0643 0.0819 0.2056 0.2188 0.0517 0.0740 0.1925 0.0565 0.2806 0.2017 0.2331 0.2333 0.6082 0.5687 0.0758 0.1180
0.3086 0.2768 0.3406 0.2109 0.2941 0.0785 0.2056 0.2397 0.2194 0.0601 0.0424 0.0480 0.1543 0.1003 0.0850 0.1592 0.0575 0.2562 0.3662 0.0612 0.1051 0.1230 0.1988 0.1791 0.2583 0.1883 0.2843 0.7625 0.3741 0.1049 0.2710 0.2769 0.2434 0.2087 0.2017 0.0691 0.1818 0.0903 0.0518 0.0447 0.1375 0.1475 0.0899 0.0637 0.0829 0.2436 0.2834 0.0522 0.0721 0.1565 0.0535 0.3608 0.1886 0.2478 0.3304 0.7088 0.7072 0.0802 0.1054
0.2392 0.1801 0.2726 0.1820 0.2384 0.0701 0.1635 0.2110 0.1637 0.0584 0.0397 0.0448 0.1315 0.0975 0.0775 0.1437 0.0602 0.2093 0.3103 0.0595 0.0995 0.1145 0.2088 0.1815 0.1873 0.2046 0.2568 0.4572 0.2852 0.1025 0.1926 0.1817 0.2236 0.1820 0.1484 0.0584 0.1432 0.0723 0.0501 0.0408 0.1212 0.1304 0.0841 0.0630 0.0775 0.2122 0.2277 0.0482 0.0715 0.1513 0.0523 0.2328 0.1838 0.2580 0.2273 0.5031 0.4672 0.0631 0.0995
0.1425 0.0876 0.1670 0.1725 0.1668 0.0631 0.1417 0.1926 0.1473 0.0509 0.0355 0.0440 0.1281 0.0988 0.0732 0.1279 0.0513 0.1158 0.1704 0.0570 0.0958 0.0935 0.1866 0.1872 0.1131 0.1661 0.1879 0.2182 0.1915 0.0908 0.1070 0.0881 0.1846 0.1509 0.1022 0.0474 0.1012 0.0686 0.0454 0.0371 0.1130 0.1253 0.0842 0.0578 0.0695 0.1396 0.1091 0.0398 0.0645 0.1304 0.0483 0.1197 0.1751 0.2245 0.0886 0.3227 0.2265 0.0496 0.0964
0.1303 0.1416 0.1630 0.1602 0.2268 0.0635 0.1327 0.1924 0.1472 0.0545 0.0362 0.0418 0.1647 0.1125 0.0844 0.1356 0.0573 0.1304 0.2000 0.0540 0.0972 0.1005 0.1996 0.2143 0.1615 0.1407 0.1820 0.5338 0.1562 0.0902 0.1722 0.1030 0.1938 0.1484 0.1020 0.0503 0.1268 0.0624 0.0459 0.0390 0.1154 0.1322 0.0857 0.0550 0.0734 0.1391 0.1407 0.0400 0.0753 0.1396 0.0482 0.2061 0.1701 0.2081 0.1625 0.5602 0.4253 0.0531 0.1240
0.1863 0.2279 0.2103 0.1728 0.2572 0.0652 0.1188 0.1909 0.1073 0.0520 0.0375 0.0419 0.1432 0.1002 0.0829 0.1383 0.0546 0.1822 0.2875 0.0527 0.0991 0.1103 0.1859 0.2175 0.2489 0.1924 0.2182 0.9937 0.2146 0.1022 0.2438 0.1541 0.1892 0.1771 0.1262 0.0557 0.1380 0.0570 0.0436 0.0373 0.0937 0.1172 0.0778 0.0557 0.0734 0.1573 0.2005 0.0424 0.0675 0.1464 0.0457 0.3490 0.1619 0.2134 0.3536 0.8920 0.7655 0.0638 0.1964
0.2107 0.1516 0.2166 0.1878 0.2508 0.0581 0.1154 0.2088 0.1235 0.0490 0.0347 0.0389 0.1296 0.0929 0.0722 0.1238 0.0533 0.1356 0.1863 0.0467 0.0890 0.0779 0.1602 0.1828 0.1559 0.2228 0.1622 0.6034 0.2661 0.0986 0.1489 0.1398 0.1902 0.1853 0.1368 0.0472 0.1239 0.0581 0.0422 0.0367 0.1052 0.1227 0.0754 0.0546 0.0713 0.1537 0.1500 0.0359 0.0578 0.1175 0.0408 0.2161 0.1404 0.1597 0.2794 0.4949 0.4767 0.0529 0.1714
0.2042 0.0824 0.1867 0.1842 0.2742 0.0658 0.1374 0.1570 0.1130 0.0489 0.0323 0.0379 0.1000 0.0871 0.0673 0.1100 0.0478 0.1056 0.1894 0.0490 0.0841 0.0916 0.1717 0.1771 0.0945 0.1851 0.1326 0.2382 0.2898 0.0986 0.0956 0.1267 0.1699 0.1855 0.1602 0.0438 0.1614 0.0535 0.0419 0.0336 0.0872 0.1125 0.0722 0.0504 0.0640 0.1204 0.1024 0.0361 0.0613 0.1299 0.0465 0.1165 0.1459 0.1733 0.1124 0.2553 0.2050 0.0467 0.1158
0.1667 0.0551 0.1697 0.1732 0.2216 0.0680 0.1235 0.1551 0.1051 0.0442 0.0303 0.0376 0.1026 0.0919 0.0671 0.1093 0.0474 0.0948 0.1187 0.0454 0.0807 0.0811 0.1517 0.1693 0.0829 0.1663 0.1285 0.2051 0.2184 0.0977 0.0857 0.0923 0.2107 0.1504 0.1206 0.0408 0.1266 0.0503 0.0388 0.0306 0.0929 0.1119 0.0717 0.0479 0.0607 0.1163 0.0864 0.0334 0.0530 0.1345 0.0423 0.0839 0.1442 0.1723 0.0696 0.2440 0.1724 0.0407 0.0867
0.0976 0.0699 0.1395 0.1910 0.1619 0.0583 0.1094 0.1351 0.0827 0.0429 0.0298 0.0348 0.0992 0.0961 0.0809 0.1098 0.0486 0.1044 0.1759 0.0456 0.0775 0.0872 0.1937 0.1842 0.1205 0.1574 0.1421 0.3578 0.1330 0.0797 0.1138 0.0609 0.2385 0.1181 0.0748 0.0389 0.0929 0.0422 0.0373 0.0299 0.0829 0.1082 0.0691 0.0473 0.0552 0.1142 0.1065 0.0362 0.0602 0.1819 0.0442 0.1373 0.1665 0.1375 0.1230 0.3153 0.2551 0.0431 0.0862
0.0775 0.1024 0.1183 0.2033 0.1885 0.0554 0.1068 0.1209 0.0881 0.0447 0.0287 0.0336 0.0987 0.0956 0.0834 0.1119 0.0370 0.0974 0.2348 0.0468 0.0750 0.0861 0.1758 0.1808 0.1574 0.1659 0.1537 0.5103 0.1455 0.0742 0.1370 0.0684 0.2000 0.1052 0.0879 0.0444 0.1097 0.0419 0.0385 0.0280 0.0796 0.1031 0.0656 0.0442 0.0535 0.1126 0.1101 0.0368 0.0524 0.1619 0.0427 0.2137 0.1776 0.1253 0.1832 0.3827 0.3447 0.0485 0.0905
0.0868 0.1002 0.1498 0.1705 0.2207 0.0519 0.1325 0.1320 0.1010 0.0435 0.0285 0.0332 0.0979 0.0756 0.0615 0.1066 0.0424 0.1031 0.2042 0.0446 0.0712 0.0732 0.1629 0.1792 0.1326 0.1921 0.1253 0.4295 0.1414 0.0798 0.1432 0.0799 0.1939 0.1160 0.1089 0.0467 0.1203 0.0461 0.0366 0.0277 0.0864 0.0989 0.0638 0.0419 0.0569 0.1167 0.1229 0.0353 0.0461 0.1582 0.0376 0.2017 0.1455 0.1174 0.1870 0.3182 0.2718 0.0467 0.0822
0.0658 0.0621 0.1147 0.1465 0.1813 0.0504 0.1313 0.1316 0.0908 0.0382 0.0274 0.0307 0.0941 0.0778 0.0685 0.0966 0.0433 0.1026 0.1882 0.0435 0.0711 0.0714 0.1413 0.1804 0.0929 0.1473 0.1147 0.2320 0.0997 0.0694 0.1077 0.0518 0.1554 0.1292 0.0817 0.0386 0.0945 0.0512 0.0370 0.0272 0.0743 0.0904 0.0592 0.0413 0.0566 0.1164 0.1147 0.0325 0.0453 0.1368 0.0381 0.1243 0.1318 0.1324 0.1040 0.2238 0.1759 0.0383 0.0692
0.0601 0.0561 0.1117 0.1413 0.1476 0.0469 0.1238 0.1179 0.0823 0.0370 0.0256 0.0298 0.1364 0.1027 0.0857 0.0934 0.0385 0.1115 0.1612 0.0411 0.0674 0.0606 0.1124 0.1558 0.0815 0.1040 0.1140 0.1632 0.1172 0.0719 0.0919 0.0485 0.1336 0.1168 0.0758 0.0361 0.0996 0.0489 0.0333 0.0261 0.0663 0.0839 0.0654 0.0407 0.0591 0.1183 0.1299 0.0278 0.0343 0.1014 0.0345 0.0892 0.1354 0.1255 0.0704 0.1914 0.1485 0.0336 0.0659
0.0728 0.0571 0.1215 0.1314 0.1349 0.0438 0.1117 0.1125 0.0845 0.0350 0.0242 0.0279 0.2202 0.1256 0.1036 0.0917 0.0448 0.1172 0.1477 0.0381 0.0624 0.0615 0.1148 0.1518 0.0829 0.0927 0.1184 0.1484 0.1221 0.0781 0.0851 0.0551 0.1271 0.1235 0.0708 0.0322 0.0828 0.0459 0.0313 0.0251 0.0771 0.0837 0.0718 0.0401 0.0590 0.1243 0.1279 0.0277 0.0352 0.1103 0.0338 0.0894 0.1263 0.1283 0.0698 0.1916 0.1526 0.0339 0.0660
0.0817 0.0826 0.1372 0.1313 0.2001 0.0453 0.1223 0.1251 0.1006 0.0371 0.0243 0.0274 0.2787 0.1334 0.1054 0.0923 0.0407 0.1451 0.2745 0.0391 0.0624 0.0686 0.1307 0.1504 0.1049 0.0914 0.1318 0.2271 0.1291 0.0855 0.1096 0.0800 0.1391 0.1352 0.0943 0.0351 0.1229 0.0467 0.0318 0.0252 0.0875 0.0826 0.0762 0.0403 0.0540 0.1266 0.1717 0.0302 0.0374 0.1364 0.0357 0.1416 0.1270 0.1207 0.0960 0.2892 0.2054 0.0377 0.0834
0.1085 0.1434 0.1772 0.1564 0.2130 0.0463 0.1108 0.1135 0.1204 0.0345 0.0246 0.0277 0.2785 0.0879 0.0657 0.0895 0.0338 0.1814 0.4308 0.0400 0.0634 0.0919 0.1521 0.1522 0.1868 0.1057 0.1699 0.4930 0.1803 0.1162 0.1929 0.1215 0.1788 0.1161 0.1103 0.0403 0.1308 0.0406 0.0294 0.0256 0.1013 0.0854 0.0642 0.0376 0.0490 0.1224 0.2165 0.0330 0.0402 0.1417 0.0367 0.3088 0.1287 0.1230 0.1857 0.5642 0.4075 0.0458 0.1334
0.1232 0.2173 0.1957 0.1996 0.1919 0.0425 0.1007 0.1289 0.1154 0.0351 0.0247 0.0272 0.1759 0.0598 0.0504 0.0873 0.0312 0.1758 0.5561 0.0389 0.0652 0.1389 0.2187 0.1790 0.3085 0.1181 0.2266 0.8779 0.2146 0.1536 0.2641 0.1496 0.2052 0.1170 0.1100 0.0431 0.1203 0.0356 0.0314 0.0248 0.0957 0.0954 0.0510 0.0351 0.0420 0.1005 0.2092 0.0380 0.0412 0.1502 0.0419 0.5204 0.1443 0.1705 0.2927 0.9584 0.7220 0.0578 0.1993
0.1046 0.1586 0.1481 0.2153 0.1312 0.0432 0.0917 0.1171 0.0828 0.0315 0.0228 0.0245 0.0925 0.0644 0.0594 0.0821 0.0305 0.0888 0.2786 0.0311 0.0643 0.1086 0.1874 0.1416 0.2316 0.1237 0.2165 0.6502 0.1924 0.1780 0.1866 0.0970 0.2112 0.1329 0.0718 0.0330 0.0892 0.0327 0.0291 0.0221 0.0695 0.0858 0.0472 0.0328 0.0405 0.0858 0.1038 0.0282 0.0421 0.0950 0.0313 0.3848 0.1413 0.1627 0.2314 0.7205 0.5604 0.0466 0.1755
0.1170 0.0811 0.1128 0.1629 0.1147 0.0435 0.0877 0.0990 0.0709 0.0293 0.0214 0.0228 0.0860 0.0672 0.0577 0.0788 0.0345 0.0702 0.1528 0.0313 0.0557 0.0609 0.1347 0.1355 0.1031 0.1052 0.1678 0.2474 0.1709 0.1533 0.1061 0.0657 0.1652 0.1047 0.0737 0.0280 0.0761 0.0313 0.0255 0.0204 0.0616 0.0787 0.0471 0.0322 0.0425 0.1002 0.0903 0.0236 0.0443 0.0909 0.0274 0.1542 0.1294 0.1354 0.1067 0.3255 0.2526 0.0324 0.1180
0.1171 0.0677 0.1093 0.1415 0.1205 0.0393 0.0902 0.0852 0.0708 0.0289 0.0203 0.0221 0.1066 0.0578 0.0430 0.0764 0.0346 0.1229 0.2056 0.0310 0.0533 0.0519 0.1153 0.1276 0.0834 0.0894 0.1519 0.2016 0.1699 0.1075 0.0926 0.0667 0.1309 0.0867 0.0925 0.0275 0.0944 0.0310 0.0248 0.0201 0.0586 0.0697 0.0437 0.0294 0.0429 0.1102 0.1403 0.0253 0.0419 0.0951 0.0283 0.0971 0.1150 0.1408 0.0675 0.3544 0.2521 0.0308 0.1071
0.0853 0.1069 0.1071 0.1469 0.1349 0.0345 0.0895 0.0959 0.0888 0.0291 0.0202 0.0229 0.1226 0.0491 0.0371 0.0715 0.0316 0.1693 0.3268 0.0289 0.0557 0.0797 0.1264 0.1023 0.1797 0.0820 0.1931 0.5204 0.1596 0.0800 0.1354 0.0750 0.1232 0.0843 0.0868 0.0313 0.1034 0.0377 0.0255 0.0196 0.0708 0.0670 0.0423 0.0293 0.0400 0.0961 0.1639 0.0311 0.0382 0.0951 0.0302 0.2445 0.1073 0.1803 0.1294 0.6613 0.5249 0.0387 0.1274
0.0785 0.1515 0.1086 0.1308 0.1524 0.0328 0.0887 0.1267 0.0795 0.0268 0.0207 0.0215 0.1155 0.0457 0.0387 0.0749 0.0324 0.1623 0.3880 0.0281 0.0565 0.0880 0.1415 0.1079 0.2448 0.0855 0.2283 0.7480 0.1438 0.0883 0.1910 0.0853 0.1233 0.0799 0.0822 0.0344 0.1067 0.0349 0.0245 0.0186 0.0675 0.0688 0.0403 0.0274 0.0368 0.0941 0.1884 0.0314 0.0429 0.0949 0.0312 0.3578 0.1142 0.1885 0.2093 0.7921 0.6843 0.0434 0.1394
0.0675 0.1415 0.0991 0.1225 0.1536 0.0337 0.0871 0.1243 0.0801 0.0266 0.0194 0.0200 0.0886 0.0454 0.0412 0.0734 0.0290 0.1350 0.3112 0.0275 0.0517 0.0770 0.1261 0.0968 0.2042 0.0937 0.1907 0.6552 0.1157 0.0866 0.1820 0.0768 0.1309 0.0941 0.0718 0.0315 0.0937 0.0353 0.0235 0.0182 0.0598 0.0656 0.0380 0.0266 0.0365 0.0912 0.1726 0.0274 0.0411 0.0871 0.0275 0.2808 0.1105 0.1586 0.2036 0.6236 0.5565 0.0396 0.1105
0.0569 0.0634 0.0764 0.0961 0.1046 0.0349 0.0826 0.1063 0.0772 0.0240 0.0172 0.0191 0.0614 0.0413 0.0358 0.0639 0.0307 0.0852 0.1273 0.0251 0.0446 0.0458 0.0886 0.0974 0.0786 0.0858 0.0896 0.2444 0.0907 0.0553 0.0900 0.0529 0.0967 0.0837 0.0609 0.0225 0.0729 0.0335 0.0209 0.0180 0.0544 0.0600 0.0343 0.0247 0.0377 0.0879 0.1051 0.0192 0.0331 0.0703 0.0219 0.0883 0.0855 0.0870 0.0842 0.2305 0.1884 0.0241 0.0534
0.0652 0.0418 0.0768 0.0832 0.0939 0.0355 0.0625 0.0880 0.0635 0.0226 0.0152 0.0180 0.0486 0.0397 0.0327 0.0527 0.0230 0.0624 0.0818 0.0232 0.0400 0.0477 0.0971 0.0945 0.0409 0.0705 0.0752 0.1050 0.0908 0.0437 0.0527 0.0556 0.0899 0.0744 0.0483 0.0195 0.0601 0.0268 0.0198 0.0162 0.0460 0.0538 0.0340 0.0228 0.0316 0.0718 0.0586 0.0170 0.0291 0.0569 0.0207 0.0478 0.0881 0.0730 0.0365 0.1320 0.0913 0.0199 0.0458
0.0662 0.0551 0.0976 0.0845 0.0952 0.0308 0.0687 0.0993 0.0612 0.0213 0.0143 0.0177 0.0619 0.0426 0.0295 0.0485 0.0206 0.0498 0.0864 0.0224 0.0394 0.0481 0.0991 0.1003 0.0488 0.0621 0.0823 0.1806 0.0821 0.0410 0.0607 0.0658 0.0999 0.0773 0.0476 0.0206 0.0702 0.0291 0.0194 0.0152 0.0448 0.0504 0.0344 0.0221 0.0272 0.0576 0.0454 0.0167 0.0274 0.0557 0.0207 0.0645 0.0975 0.0700 0.0474 0.1823 0.1279 0.0216 0.0548
0.0773 0.0463 0.1098 0.0847 0.1074 0.0296 0.0659 0.0958 0.0574 0.0204 0.0136 0.0175 0.0807 0.0484 0.0366 0.0484 0.0212 0.0470 0.0731 0.0212 0.0358 0.0424 0.0812 0.1012 0.0449 0.0605 0.0672 0.1506 0.0909 0.0366 0.0540 0.0647 0.1069 0.0801 0.0529 0.0213 0.0600 0.0316 0.0183 0.0142 0.0477 0.0486 0.0360 0.0220 0.0292 0.0607 0.0434 0.0155 0.0261 0.0588 0.0186 0.0615 0.0727 0.0767 0.0387 0.1644 0.1154 0.0206 0.0418
0.0846 0.0372 0.1122 0.0938 0.1257 0.0286 0.0588 0.0766 0.0645 0.0201 0.0130 0.0162 0.0831 0.0513 0.0431 0.0458 0.0221 0.0653 0.0745 0.0215 0.0349 0.0458 0.0749 0.0872 0.0548 0.0596 0.0675 0.1053 0.1041 0.0365 0.0474 0.0567 0.1188 0.0768 0.0566 0.0216 0.0577 0.0289 0.0179 0.0139 0.0500 0.0490 0.0333 0.0204 0.0322 0.0692 0.0545 0.0153 0.0227 0.0553 0.0176 0.0799 0.0654 0.0965 0.0392 0.1879 0.1218 0.0209 0.0345
0.1002 0.0473 0.1149 0.0919 0.1231 0.0254 0.0554 0.0769 0.0614 0.0194 0.0129 0.0149 0.0740 0.0442 0.0391 0.0430 0.0285 0.1033 0.1493 0.0250 0.0321 0.0596 0.0815 0.0729 0.0719 0.0582 0.0776 0.1235 0.1155 0.0353 0.0588 0.0633 0.1061 0.0712 0.0609 0.0225 0.0605 0.0252 0.0183 0.0138 0.0479 0.0494 0.0307 0.0199 0.0360 0.0775 0.0941 0.0186 0.0230 0.0641 0.0202 0.1137 0.0680 0.1092 0.0533 0.2407 0.1514 0.0219 0.0441
0.1147 0.0584 0.1258 0.0741 0.1099 0.0233 0.0437 0.0646 0.0530 0.0179 0.0118 0.0146 0.0650 0.0403 0.0328 0.0412 0.0239 0.0847 0.1496 0.0211 0.0308 0.0439 0.0658 0.0666 0.0587 0.0536 0.0717 0.1200 0.1369 0.0477 0.0656 0.0755 0.0908 0.0608 0.0664 0.0213 0.0574 0.0204 0.0155 0.0118 0.0430 0.0444 0.0292 0.0180 0.0326 0.0703 0.0965 0.0162 0.0186 0.0536 0.0171 0.0882 0.0654 0.0846 0.0624 0.2019 0.1270 0.0205 0.0525
0.1172 0.0686 0.1352 0.0734 0.1241 0.0258 0.0397 0.0662 0.0632 0.0178 0.0114 0.0136 0.0641 0.0372 0.0260 0.0372 0.0195 0.0664 0.1495 0.0181 0.0286 0.0411 0.0606 0.0605 0.0614 0.0513 0.0576 0.1441 0.1599 0.0630 0.0688 0.0844 0.0873 0.0544 0.0728 0.0215 0.0686 0.0206 0.0139 0.0114 0.0478 0.0464 0.0262 0.0163 0.0248 0.0505 0.0888 0.0149 0.0202 0.0448 0.0162 0.0793 0.0577 0.0647 0.0788 0.1710 0.1248 0.0199 0.0511
0.0818 0.0479 0.1117 0.0711 0.0922 0.0234 0.0335 0.0576 0.0505 0.0155 0.0103 0.0123 0.0487 0.0330 0.0207 0.0323 0.0173 0.0426 0.1059 0.0152 0.0255 0.0356 0.0652 0.0485 0.0533 0.0534 0.0469 0.1458 0.1245 0.0611 0.0559 0.0561 0.0818 0.0419 0.0612 0.0166 0.0419 0.0175 0.0121 0.0102 0.0402 0.0421 0.0240 0.0144 0.0185 0.0371 0.0622 0.0124 0.0207 0.0365 0.0135 0.0759 0.0512 0.0514 0.0756 0.1186 0.1092 0.0160 0.0366
0.0540 0.0325 0.0637 0.0520 0.0682 0.0223 0.0314 0.0504 0.0356 0.0129 0.0091 0.0106 0.0351 0.0278 0.0188 0.0284 0.0145 0.0345 0.0762 0.0134 0.0221 0.0338 0.0593 0.0558 0.0490 0.0485 0.0483 0.1544 0.0740 0.0489 0.0408 0.0279 0.0635 0.0400 0.0388 0.0119 0.0315 0.0158 0.0115 0.0090 0.0321 0.0348 0.0204 0.0125 0.0158 0.0322 0.0415 0.0107 0.0191 0.0364 0.0124 0.0708 0.0512 0.0497 0.0647 0.1139 0.1193 0.0133 0.0273
0.0317 0.0325 0.0351 0.0422 0.0527 0.0170 0.0284 0.0406 0.0301 0.0103 0.0074 0.0089 0.0254 0.0225 0.0152 0.0239 0.0141 0.0287 0.0537 0.0111 0.0186 0.0251 0.0511 0.0428 0.0508 0.0364 0.0417 0.1775 0.0430 0.0324 0.0356 0.0190 0.0416 0.0403 0.0252 0.0091 0.0278 0.0122 0.0095 0.0077 0.0251 0.0283 0.0170 0.0104 0.0133 0.0268 0.0311 0.0084 0.0168 0.0363 0.0109 0.0700 0.0388 0.0423 0.0590 0.1339 0.1367 0.0112 0.0225
0.0229 0.0241 0.0251 0.0300 0.0319 0.0104 0.0221 0.0303 0.0271 0.0076 0.0056 0.0064 0.0199 0.0154 0.0105 0.0171 0.0107 0.0228 0.0406 0.0081 0.0138 0.0215 0.0403 0.0313 0.0378 0.0202 0.0334 0.1230 0.0333 0.0195 0.0261 0.0161 0.0273 0.0278 0.0173 0.0068 0.0219 0.0099 0.0072 0.0057 0.0205 0.0195 0.0119 0.0077 0.0099 0.0200 0.0239 0.0063 0.0141 0.0287 0.0084 0.0493 0.0308 0.0340 0.0333 0.1143 0.0990 0.0083 0.0197
0.0126 0.0106 0.0161 0.0185 0.0211 0.0056 0.0122 0.0153 0.0104 0.0043 0.0031 0.0035 0.0098 0.0088 0.0064 0.0099 0.0057 0.0131 0.0221 0.0047 0.0076 0.0125 0.0250 0.0217 0.0164 0.0122 0.0196 0.0433 0.0184 0.0091 0.0127 0.0098 0.0182 0.0169 0.0095 0.0041 0.0107 0.0052 0.0042 0.0029 0.0085 0.0098 0.0070 0.0044 0.0060 0.0116 0.0134 0.0036 0.0085 0.0154 0.0048 0.0219 0.0203 0.0194 0.0133 0.0463 0.0395 0.0046 0.0106
0.0054 0.0028 0.0065 0.0075 0.0103 0.0024 0.0067 0.0080 0.0056 0.0020 0.0014 0.0016 0.0062 0.0044 0.0030 0.0040 0.0026 0.0043 0.0074 0.0021 0.0034 0.0055 0.0110 0.0091 0.0038 0.0055 0.0064 0.0073 0.0083 0.0039 0.0041 0.0039 0.0076 0.0068 0.0047 0.0018 0.0060 0.0026 0.0019 0.0014 0.0042 0.0047 0.0033 0.0019 0.0024 0.0048 0.0052 0.0015 0.0039 0.0070 0.0021 0.0053 0.0092 0.0067 0.0028 0.0121 0.0079 0.0019 0.0037
0.0017 0.0011 0.0020 0.0023 0.0032 0.0008 0.0020 0.0023 0.0016 0.0006 0.0004 0.0005 0.0036 0.0018 0.0012 0.0012 0.0012 0.0024 0.0027 0.0006 0.0011 0.0016 0.0040 0.0028 0.0013 0.0019 0.0019 0.0027 0.0030 0.0013 0.0013 0.0014 0.0023 0.0019 0.0017 0.0006 0.0022 0.0007 0.0005 0.0004 0.0014 0.0015 0.0012 0.0007 0.0008 0.0020 0.0027 0.0005 0.0014 0.0028 0.0007 0.0016 0.0025 0.0026 0.0008 0.0054 0.0032 0.0006 0.0011
0.0004 0.0002 0.0004 0.0006 0.0006 0.0002 0.0005 0.0005 0.0005 0.0001 0.0001 0.0001 0.0014 0.0007 0.0005 0.0003 0.0002 0.0007 0.0007 0.0001 0.0002 0.0004 0.0008 0.0006 0.0003 0.0005 0.0005 0.0007 0.0007 0.0003 0.0003 0.0003 0.0005 0.0004 0.0004 0.0001 0.0005 0.0002 0.0001 0.0001 0.0005 0.0004 0.0003 0.0002 0.0002 0.0006 0.0006 0.0001 0.0003 0.0004 0.0002 0.0004 0.0006 0.0006 0.0002 0.0016 0.0009 0.0001 0.0003
0.0001 0.0000 0.0001 0.0001 0.0001 0.0000 0.0001 0.0001 0.0001 0.0000 0.0000 0.0000 0.0003 0.0002 0.0001 0.0001 0.0000 0.0001 0.0002 0.0000 0.0001 0.0001 0.0002 0.0002 0.0001 0.0001 0.0001 0.0002 0.0001 0.0001 0.0001 0.0000 0.0001 0.0001 0.0001 0.0000 0.0001 0.0000 0.0000 0.0000 0.0001 0.0001 0.0001 0.0000 0.0000 0.0001 0.0001 0.0000 0.0001 0.0001 0.0000 0.0001 0.0001 0.0001 0.0001 0.0003 0.0001 0.0000 0.0001
0.0000 0.0000 0.0001 0.0000 0.0000 0.0000 0.0000 0.0000 0.0000 0.0000 0.0000 0.0000 0.0001 0.0000 0.0000 0.0000 0.0000 0.0000 0.0001 0.0000 0.0000 0.0000 0.0001 0.0001 0.0000 0.0000 0.0000 0.0001 0.0000 0.0000 0.0000 0.0000 0.0000 0.0000 0.0000 0.0000 0.0000 0.0000 0.0000 0.0000 0.0000 0.0000 0.0000 0.0000 0.0000 0.0000 0.0000 0.0000 0.0000 0.0000 0.0000 0.0000 0.0001 0.0000 0.0000 0.0001 0.0001 0.0000 0.0000
0.0000 0.0000 0.0000 0.0000 0.0000 0.0000 0.0000 0.0000 0.0000 0.0000 0.0000 0.0000 0.0000 0.0000 0.0000 0.0000 0.0000 0.0000 0.0000 0.0000 0.0000 0.0000 0.0000 0.0000 0.0000 0.0000 0.0000 0.0000 0.0000 0.0000 0.0000 0.0000 0.0000 0.0000 0.0000 0.0000 0.0000 0.0000 0.0000 0.0000 0.0000 0.0000 0.0000 0.0000 0.0000 0.0000 0.0000 0.0000 0.0000 0.0000 0.0000 0.0000 0.0000 0.0000 0.0000 0.0000 0.0000 0.0000 0.0000
0.0000 0.0000 0.0000 0.0000 0.0000 0.0000 0.0000 0.0000 0.0000 0.0000 0.0000 0.0000 0.0000 0.0000 0.0000 0.0000 0.0000 0.0000 0.0000 0.0000 0.0000 0.0000 0.0000 0.0000 0.0000 0.0000 0.0000 0.0000 0.0000 0.0000 0.0000 0.0000 0.0000 0.0000 0.0000 0.0000 0.0000 0.0000 0.0000 0.0000 0.0000 0.0000 0.0000 0.0000 0.0000 0.0000 0.0000 0.0000 0.0000 0.0000 0.0000 0.0000 0.0000 0.0000 0.0000 0.0000 0.0000 0.0000 0.0000
0.0000 0.0000 0.0001 0.0000 0.0000 0.0000 0.0000 0.0000 0.0000 0.0000 0.0000 0.0000 0.0000 0.0000 0.0000 0.0000 0.0000 0.0000 0.0000 0.0000 0.0000 0.0000 0.0000 0.0000 0.0000 0.0000 0.0000 0.0000 0.0000 0.0000 0.0000 0.0000 0.0000 0.0000 0.0000 0.0000 0.0000 0.0000 0.0000 0.0000 0.0000 0.0000 0.0000 0.0000 0.0000 0.0000 0.0000 0.0000 0.0000 0.0000 0.0000 0.0000 0.0000 0.0000 0.0000 0.0000 0.0000 0.0000 0.0000
0.0000 0.0000 0.0001 0.0000 0.0000 0.0000 0.0001 0.0000 0.0000 0.0000 0.0000 0.0000 0.0000 0.0000 0.0000 0.0000 0.0000 0.0000 0.0000 0.0000 0.0000 0.0000 0.0000 0.0000 0.0000 0.0000 0.0000 0.0000 0.0000 0.0000 0.0000 0.0000 0.0000 0.0000 0.0000 0.0000 0.0000 0.0000 0.0000 0.0000 0.0000 0.0000 0.0000 0.0000 0.0000 0.0000 0.0000 0.0000 0.0000 0.0000 0.0000 0.0000 0.0000 0.0000 0.0000 0.0000 0.0000 0.0000 0.0000
0.0000 0.0000 0.0001 0.0000 0.0000 0.0000 0.0001 0.0000 0.0000 0.0000 0.0000 0.0000 0.0000 0.0000 0.0000 0.0000 0.0000 0.0000 0.0000 0.0000 0.0000 0.0000 0.0000 0.0000 0.0000 0.0000 0.0000 0.0000 0.0000 0.0000 0.0000 0.0000 0.0000 0.0000 0.0000 0.0000 0.0000 0.0000 0.0000 0.0000 0.0000 0.0000 0.0000 0.0000 0.0000 0.0000 0.0000 0.0000 0.0000 0.0000 0.0000 0.0000 0.0000 0.0000 0.0000 0.0000 0.0000 0.0000 0.0000
0.0000 0.0000 0.0001 0.0000 0.0000 0.0000 0.0001 0.0000 0.0000 0.0000 0.0000 0.0000 0.0000 0.0000 0.0000 0.0000 0.0000 0.0000 0.0000 0.0000 0.0000 0.0000 0.0000 0.0000 0.0000 0.0000 0.0000 0.0000 0.0000 0.0000 0.0000 0.0000 0.0000 0.0000 0.0000 0.0000 0.0000 0.0000 0.0000 0.0000 0.0000 0.0000 0.0000 0.0000 0.0000 0.0000 0.0000 0.0000 0.0000 0.0000 0.0000 0.0000 0.0000 0.0000 0.0000 0.0000 0.0000 0.0000 0.0000
0.0000 0.0000 0.0001 0.0000 0.0000 0.0000 0.0001 0.0000 0.0000 0.0000 0.0000 0.0000 0.0000 0.0000 0.0000 0.0000 0.0000 0.0000 0.0000 0.0000 0.0000 0.0000 0.0000 0.0000 0.0000 0.0000 0.0000 0.0000 0.0000 0.0000 0.0000 0.0000 0.0000 0.0000 0.0000 0.0000 0.0000 0.0000 0.0000 0.0000 0.0000 0.0000 0.0000 0.0000 0.0000 0.0000 0.0000 0.0000 0.0000 0.0000 0.0000 0.0000 0.0000 0.0000 0.0000 0.0000 0.0000 0.0000 0.0000
0.0000 0.0000 0.0001 0.0000 0.0000 0.0000 0.0001 0.0000 0.0000 0.0000 0.0000 0.0000 0.0000 0.0000 0.0000 0.0000 0.0000 0.0000 0.0000 0.0000 0.0000 0.0000 0.0000 0.0000 0.0000 0.0000 0.0000 0.0000 0.0000 0.0000 0.0000 0.0000 0.0000 0.0000 0.0000 0.0000 0.0000 0.0000 0.0000 0.0000 0.0000 0.0000 0.0000 0.0000 0.0000 0.0000 0.0000 0.0000 0.0000 0.0000 0.0000 0.0000 0.0000 0.0000 0.0000 0.0000 0.0000 0.0000 0.0000
0.0000 0.0000 0.0001 0.0000 0.0000 0.0000 0.0001 0.0000 0.0000 0.0000 0.0000 0.0000 0.0000 0.0000 0.0000 0.0000 0.0000 0.0000 0.0000 0.0000 0.0000 0.0000 0.0000 0.0000 0.0000 0.0000 0.0000 0.0000 0.0000 0.0000 0.0000 0.0000 0.0000 0.0000 0.0000 0.0000 0.0000 0.0000 0.0000 0.0000 0.0000 0.0000 0.0000 0.0000 0.0000 0.0000 0.0000 0.0000 0.0000 0.0000 0.0000 0.0000 0.0000 0.0000 0.0000 0.0000 0.0000 0.0000 0.0000
0.0000 0.0000 0.0001 0.0000 0.0000 0.0000 0.0000 0.0000 0.0000 0.0000 0.0000 0.0000 0.0000 0.0000 0.0000 0.0000 0.0000 0.0000 0.0000 0.0000 0.0000 0.0000 0.0000 0.0000 0.0000 0.0000 0.0000 0.0000 0.0000 0.0000 0.0000 0.0000 0.0000 0.0000 0.0000 0.0000 0.0000 0.0000 0.0000 0.0000 0.0000 0.0000 0.0000 0.0000 0.0000 0.0000 0.0000 0.0000 0.0000 0.0000 0.0000 0.0000 0.0000 0.0000 0.0000 0.0000 0.0000 0.0000 0.0000
0.0000 0.0000 0.0000 0.0000 0.0000 0.0000 0.0000 0.0000 0.0000 0.0000 0.0000 0.0000 0.0000 0.0000 0.0000 0.0000 0.0000 0.0000 0.0000 0.0000 0.0000 0.0000 0.0000 0.0000 0.0000 0.0000 0.0000 0.0000 0.0000 0.0000 0.0000 0.0000 0.0000 0.0000 0.0000 0.0000 0.0000 0.0000 0.0000 0.0000 0.0000 0.0000 0.0000 0.0000 0.0000 0.0000 0.0000 0.0000 0.0000 0.0000 0.0000 0.0000 0.0000 0.0000 0.0000 0.0000 0.0000 0.0000 0.0000
0.0000 0.0000 0.0000 0.0000 0.0000 0.0000 0.0000 0.0000 0.0000 0.0000 0.0000 0.0000 0.0000 0.0000 0.0000 0.0000 0.0000 0.0000 0.0001 0.0000 0.0000 0.0000 0.0000 0.0000 0.0000 0.0000 0.0000 0.0000 0.0000 0.0000 0.0000 0.0000 0.0000 0.0000 0.0000 0.0000 0.0000 0.0000 0.0000 0.0000 0.0000 0.0000 0.0000 0.0000 0.0000 0.0000 0.0000 0.0000 0.0000 0.0000 0.0000 0.0000 0.0000 0.0000 0.0000 0.0000 0.0000 0.0000 0.0000
0.0000 0.0000 0.0000 0.0000 0.0000 0.0000 0.0000 0.0000 0.0000 0.0000 0.0000 0.0000 0.0000 0.0000 0.0000 0.0000 0.0000 0.0000 0.0001 0.0000 0.0000 0.0000 0.0000 0.0000 0.0000 0.0000 0.0000 0.0001 0.0000 0.0000 0.0000 0.0000 0.0000 0.0000 0.0000 0.0000 0.0000 0.0000 0.0000 0.0000 0.0000 0.0000 0.0000 0.0000 0.0000 0.0000 0.0000 0.0000 0.0000 0.0000 0.0000 0.0000 0.0000 0.0000 0.0000 0.0001 0.0001 0.0000 0.0000
0.0001 0.0000 0.0001 0.0001 0.0001 0.0000 0.0001 0.0001 0.0001 0.0000 0.0000 0.0000 0.0001 0.0001 0.0001 0.0001 0.0000 0.0001 0.0001 0.0000 0.0000 0.0000 0.0001 0.0001 0.0001 0.0001 0.0001 0.0001 0.0001 0.0000 0.0000 0.0000 0.0001 0.0001 0.0000 0.0000 0.0000 0.0000 0.0000 0.0000 0.0001 0.0001 0.0000 0.0000 0.0000 0.0001 0.0001 0.0000 0.0000 0.0001 0.0000 0.0001 0.0001 0.0001 0.0000 0.0002 0.0001 0.0000 0.0000
0.0003 0.0001 0.0004 0.0003 0.0003 0.0001 0.0002 0.0003 0.0002 0.0001 0.0000 0.0001 0.0003 0.0002 0.0001 0.0002 0.0001 0.0002 0.0003 0.0001 0.0001 0.0002 0.0003 0.0003 0.0002 0.0003 0.0004 0.0004 0.0005 0.0001 0.0002 0.0002 0.0003 0.0002 0.0002 0.0001 0.0002 0.0001 0.0001 0.0001 0.0002 0.0002 0.0001 0.0001 0.0001 0.0002 0.0002 0.0001 0.0001 0.0002 0.0001 0.0002 0.0003 0.0005 0.0001 0.0007 0.0004 0.0001 0.0002
0.0012 0.0004 0.0014 0.0011 0.0014 0.0003 0.0009 0.0009 0.0009 0.0003 0.0002 0.0002 0.0007 0.0005 0.0004 0.0005 0.0004 0.0006 0.0010 0.0003 0.0004 0.0006 0.0014 0.0010 0.0006 0.0008 0.0009 0.0016 0.0017 0.0005 0.0006 0.0007 0.0011 0.0008 0.0007 0.0003 0.0007 0.0003 0.0002 0.0002 0.0006 0.0006 0.0004 0.0002 0.0003 0.0006 0.0006 0.0002 0.0004 0.0009 0.0002 0.0007 0.0010 0.0010 0.0004 0.0025 0.0013 0.0002 0.0005
0.0031 0.0012 0.0045 0.0028 0.0039 0.0008 0.0023 0.0029 0.0022 0.0007 0.0004 0.0005 0.0016 0.0013 0.0009 0.0014 0.0009 0.0015 0.0030 0.0007 0.0012 0.0015 0.0037 0.0033 0.0017 0.0018 0.0023 0.0042 0.0040 0.0014 0.0018 0.0020 0.0033 0.0026 0.0019 0.0007 0.0019 0.0009 0.0006 0.0004 0.0015 0.0018 0.0010 0.0006 0.0008 0.0017 0.0017 0.0005 0.0011 0.0030 0.0007 0.0019 0.0029 0.0023 0.0009 0.0054 0.0034 0.0006 0.0012
0.0049 0.0021 0.0084 0.0052 0.0069 0.0014 0.0055 0.0066 0.0066 0.0013 0.0009 0.0011 0.0036 0.0025 0.0018 0.0027 0.0016 0.0028 0.0071 0.0014 0.0022 0.0029 0.0062 0.0064 0.0030 0.0032 0.0044 0.0071 0.0065 0.0027 0.0033 0.0033 0.0072 0.0065 0.0034 0.0012 0.0041 0.0024 0.0011 0.0010 0.0038 0.0034 0.0019 0.0012 0.0016 0.0031 0.0031 0.0010 0.0023 0.0047 0.0014 0.0034 0.0056 0.0048 0.0018 0.0082 0.0063 0.0012 0.0022
0.0053 0.0031 0.0102 0.0094 0.0111 0.0025 0.0088 0.0095 0.0096 0.0020 0.0014 0.0017 0.0050 0.0038 0.0030 0.0043 0.0027 0.0040 0.0110 0.0022 0.0034 0.0045 0.0093 0.0101 0.0048 0.0051 0.0083 0.0098 0.0069 0.0041 0.0047 0.0041 0.0122 0.0107 0.0041 0.0018 0.0055 0.0042 0.0018 0.0015 0.0048 0.0043 0.0031 0.0018 0.0024 0.0048 0.0049 0.0016 0.0039 0.0077 0.0022 0.0049 0.0082 0.0086 0.0030 0.0116 0.0101 0.0017 0.0042
0.0052 0.0039 0.0087 0.0145 0.0160 0.0036 0.0112 0.0101 0.0119 0.0025 0.0017 0.0022 0.0084 0.0055 0.0043 0.0053 0.0025 0.0049 0.0121 0.0027 0.0041 0.0058 0.0109 0.0117 0.0066 0.0064 0.0105 0.0123 0.0076 0.0047 0.0057 0.0042 0.0148 0.0133 0.0056 0.0024 0.0074 0.0047 0.0022 0.0019 0.0060 0.0056 0.0042 0.0023 0.0028 0.0058 0.0050 0.0019 0.0045 0.0078 0.0026 0.0067 0.0103 0.0115 0.0040 0.0164 0.0136 0.0021 0.0051
0.0057 0.0047 0.0083 0.0134 0.0167 0.0041 0.0120 0.0110 0.0103 0.0028 0.0019 0.0024 0.0086 0.0060 0.0048 0.0060 0.0029 0.0072 0.0150 0.0031 0.0046 0.0059 0.0118 0.0119 0.0069 0.0080 0.0114 0.0143 0.0096 0.0050 0.0060 0.0043 0.0138 0.0108 0.0069 0.0026 0.0090 0.0044 0.0022 0.0020 0.0063 0.0064 0.0045 0.0026 0.0033 0.0077 0.0071 0.0022 0.0043 0.0086 0.0028 0.0074 0.0097 0.0130 0.0050 0.0192 0.0156 0.0024 0.0048
0.0067 0.0052 0.0080 0.0136 0.0158 0.0041 0.0114 0.0134 0.0110 0.0029 0.0019 0.0025 0.0092 0.0059 0.0048 0.0062 0.0031 0.0096 0.0172 0.0033 0.0049 0.0065 0.0127 0.0116 0.0070 0.0079 0.0111 0.0138 0.0115 0.0050 0.0070 0.0046 0.0122 0.0095 0.0076 0.0027 0.0106 0.0046 0.0024 0.0021 0.0082 0.0077 0.0043 0.0027 0.0035 0.0091 0.0093 0.0024 0.0046 0.0090 0.0030 0.0074 0.0099 0.0140 0.0052 0.0176 0.0155 0.0026 0.0046
0.0074 0.0059 0.0082 0.0115 0.0142 0.0037 0.0113 0.0137 0.0109 0.0029 0.0019 0.0024 0.0109 0.0057 0.0042 0.0059 0.0038 0.0095 0.0173 0.0033 0.0047 0.0073 0.0155 0.0115 0.0066 0.0079 0.0094 0.0125 0.0110 0.0050 0.0075 0.0052 0.0114 0.0096 0.0082 0.0025 0.0105 0.0049 0.0025 0.0020 0.0081 0.0070 0.0044 0.0027 0.0040 0.0101 0.0103 0.0023 0.0045 0.0102 0.0032 0.0084 0.0097 0.0110 0.0058 0.0143 0.0126 0.0026 0.0050
0.0083 0.0054 0.0092 0.0102 0.0141 0.0038 0.0127 0.0140 0.0133 0.0028 0.0019 0.0022 0.0128 0.0061 0.0045 0.0059 0.0036 0.0092 0.0211 0.0031 0.0045 0.0084 0.0149 0.0113 0.0075 0.0080 0.0101 0.0132 0.0114 0.0058 0.0069 0.0055 0.0121 0.0116 0.0086 0.0025 0.0115 0.0048 0.0024 0.0021 0.0080 0.0071 0.0044 0.0026 0.0047 0.0094 0.0094 0.0025 0.0036 0.0089 0.0033 0.0105 0.0096 0.0115 0.0058 0.0180 0.0137 0.0025 0.0055
0.0109 0.0043 0.0109 0.0099 0.0120 0.0040 0.0097 0.0116 0.0085 0.0026 0.0018 0.0021 0.0150 0.0076 0.0060 0.0057 0.0048 0.0091 0.0175 0.0028 0.0044 0.0073 0.0126 0.0105 0.0074 0.0080 0.0111 0.0127 0.0129 0.0068 0.0065 0.0055 0.0116 0.0089 0.0086 0.0024 0.0093 0.0031 0.0023 0.0019 0.0065 0.0063 0.0048 0.0025 0.0051 0.0101 0.0097 0.0025 0.0035 0.0088 0.0031 0.0094 0.0098 0.0121 0.0051 0.0170 0.0144 0.0024 0.0047
0.0101 0.0038 0.0102 0.0103 0.0106 0.0036 0.0089 0.0107 0.0112 0.0026 0.0017 0.0022 0.0188 0.0092 0.0067 0.0054 0.0037 0.0066 0.0139 0.0027 0.0043 0.0065 0.0136 0.0098 0.0057 0.0077 0.0095 0.0100 0.0105 0.0072 0.0068 0.0047 0.0107 0.0074 0.0079 0.0023 0.0097 0.0032 0.0021 0.0019 0.0084 0.0067 0.0053 0.0026 0.0046 0.0091 0.0074 0.0021 0.0033 0.0074 0.0027 0.0069 0.0108 0.0098 0.0043 0.0133 0.0101 0.0024 0.0046
0.0070 0.0036 0.0081 0.0087 0.0108 0.0030 0.0083 0.0102 0.0105 0.0024 0.0016 0.0020 0.0151 0.0074 0.0043 0.0052 0.0029 0.0059 0.0093 0.0024 0.0039 0.0051 0.0123 0.0108 0.0050 0.0073 0.0089 0.0128 0.0073 0.0067 0.0071 0.0037 0.0097 0.0065 0.0057 0.0021 0.0099 0.0032 0.0020 0.0018 0.0072 0.0062 0.0045 0.0023 0.0040 0.0079 0.0060 0.0018 0.0028 0.0069 0.0022 0.0062 0.0093 0.0085 0.0048 0.0149 0.0103 0.0021 0.0055
0.0068 0.0056 0.0087 0.0097 0.0123 0.0032 0.0108 0.0108 0.0120 0.0024 0.0016 0.0020 0.0108 0.0056 0.0038 0.0052 0.0033 0.0084 0.0090 0.0022 0.0041 0.0065 0.0132 0.0106 0.0087 0.0073 0.0105 0.0256 0.0086 0.0079 0.0088 0.0044 0.0090 0.0091 0.0075 0.0023 0.0125 0.0034 0.0020 0.0018 0.0061 0.0058 0.0039 0.0022 0.0035 0.0057 0.0053 0.0018 0.0034 0.0072 0.0023 0.0109 0.0128 0.0100 0.0086 0.0283 0.0201 0.0024 0.0075
0.0070 0.0075 0.0090 0.0107 0.0130 0.0032 0.0088 0.0109 0.0062 0.0022 0.0014 0.0018 0.0091 0.0057 0.0058 0.0057 0.0040 0.0113 0.0099 0.0022 0.0041 0.0079 0.0123 0.0109 0.0116 0.0076 0.0148 0.0356 0.0108 0.0084 0.0092 0.0052 0.0083 0.0101 0.0082 0.0023 0.0076 0.0027 0.0021 0.0015 0.0048 0.0048 0.0036 0.0022 0.0035 0.0055 0.0058 0.0019 0.0045 0.0069 0.0025 0.0145 0.0148 0.0133 0.0132 0.0377 0.0305 0.0028 0.0084
0.0061 0.0076 0.0085 0.0118 0.0118 0.0031 0.0077 0.0088 0.0056 0.0020 0.0014 0.0016 0.0106 0.0077 0.0095 0.0061 0.0044 0.0123 0.0110 0.0021 0.0037 0.0080 0.0133 0.0106 0.0119 0.0084 0.0147 0.0345 0.0116 0.0066 0.0081 0.0051 0.0083 0.0101 0.0071 0.0023 0.0067 0.0023 0.0021 0.0014 0.0048 0.0046 0.0037 0.0022 0.0036 0.0066 0.0064 0.0020 0.0042 0.0067 0.0024 0.0156 0.0159 0.0127 0.0146 0.0355 0.0305 0.0028 0.0076
0.0053 0.0058 0.0094 0.0120 0.0124 0.0029 0.0072 0.0076 0.0061 0.0020 0.0013 0.0016 0.0122 0.0087 0.0099 0.0054 0.0045 0.0086 0.0090 0.0020 0.0036 0.0071 0.0150 0.0098 0.0083 0.0087 0.0099 0.0249 0.0104 0.0054 0.0063 0.0046 0.0098 0.0100 0.0064 0.0021 0.0069 0.0021 0.0019 0.0013 0.0054 0.0048 0.0039 0.0022 0.0035 0.0075 0.0073 0.0017 0.0041 0.0074 0.0024 0.0117 0.0137 0.0091 0.0110 0.0262 0.0210 0.0024 0.0058
0.0056 0.0047 0.0109 0.0123 0.0136 0.0029 0.0078 0.0078 0.0092 0.0019 0.0012 0.0015 0.0119 0.0066 0.0058 0.0041 0.0029 0.0063 0.0079 0.0019 0.0034 0.0062 0.0121 0.0103 0.0053 0.0100 0.0081 0.0177 0.0101 0.0053 0.0051 0.0047 0.0130 0.0115 0.0059 0.0020 0.0074 0.0029 0.0018 0.0014 0.0056 0.0049 0.0035 0.0018 0.0028 0.0070 0.0063 0.0015 0.0033 0.0056 0.0020 0.0079 0.0126 0.0072 0.0087 0.0184 0.0128 0.0021 0.0049
0.0071 0.0044 0.0134 0.0108 0.0143 0.0027 0.0075 0.0078 0.0097 0.0017 0.0012 0.0014 0.0081 0.0039 0.0027 0.0037 0.0020 0.0048 0.0109 0.0019 0.0030 0.0052 0.0096 0.0117 0.0050 0.0083 0.0083 0.0139 0.0100 0.0059 0.0047 0.0053 0.0160 0.0124 0.0053 0.0018 0.0064 0.0031 0.0016 0.0014 0.0048 0.0042 0.0028 0.0016 0.0022 0.0050 0.0064 0.0014 0.0036 0.0072 0.0021 0.0076 0.0107 0.0073 0.0077 0.0120 0.0114 0.0018 0.0044
0.0074 0.0064 0.0135 0.0085 0.0142 0.0026 0.0061 0.0072 0.0081 0.0016 0.0012 0.0014 0.0062 0.0029 0.0025 0.0039 0.0020 0.0057 0.0159 0.0018 0.0027 0.0050 0.0087 0.0130 0.0069 0.0070 0.0073 0.0197 0.0118 0.0067 0.0055 0.0064 0.0125 0.0108 0.0058 0.0021 0.0059 0.0027 0.0014 0.0012 0.0050 0.0040 0.0023 0.0015 0.0023 0.0052 0.0087 0.0014 0.0031 0.0073 0.0018 0.0108 0.0081 0.0065 0.0107 0.0148 0.0158 0.0019 0.0048
0.0062 0.0064 0.0098 0.0085 0.0101 0.0023 0.0060 0.0070 0.0073 0.0016 0.0011 0.0013 0.0069 0.0029 0.0027 0.0034 0.0020 0.0089 0.0143 0.0017 0.0027 0.0060 0.0089 0.0107 0.0064 0.0061 0.0056 0.0181 0.0115 0.0061 0.0051 0.0057 0.0085 0.0080 0.0058 0.0017 0.0062 0.0023 0.0013 0.0012 0.0052 0.0044 0.0023 0.0016 0.0025 0.0062 0.0103 0.0014 0.0031 0.0053 0.0017 0.0108 0.0073 0.0059 0.0095 0.0189 0.0159 0.0018 0.0050
0.0062 0.0077 0.0088 0.0088 0.0095 0.0023 0.0059 0.0058 0.0058 0.0015 0.0011 0.0011 0.0061 0.0032 0.0027 0.0030 0.0021 0.0114 0.0183 0.0015 0.0027 0.0058 0.0072 0.0085 0.0090 0.0065 0.0080 0.0250 0.0115 0.0052 0.0059 0.0060 0.0074 0.0079 0.0058 0.0018 0.0050 0.0022 0.0012 0.0011 0.0039 0.0037 0.0022 0.0014 0.0023 0.0063 0.0128 0.0015 0.0027 0.0050 0.0016 0.0143 0.0065 0.0088 0.0106 0.0300 0.0243 0.0019 0.0056
0.0047 0.0065 0.0079 0.0071 0.0088 0.0022 0.0043 0.0055 0.0041 0.0014 0.0010 0.0011 0.0058 0.0038 0.0031 0.0027 0.0017 0.0088 0.0145 0.0013 0.0024 0.0040 0.0052 0.0061 0.0080 0.0061 0.0083 0.0242 0.0078 0.0053 0.0052 0.0051 0.0063 0.0077 0.0049 0.0016 0.0041 0.0018 0.0011 0.0009 0.0035 0.0030 0.0024 0.0013 0.0022 0.0053 0.0095 0.0015 0.0018 0.0032 0.0013 0.0128 0.0063 0.0076 0.0099 0.0273 0.0233 0.0018 0.0065
0.0029 0.0028 0.0057 0.0062 0.0074 0.0021 0.0038 0.0060 0.0040 0.0013 0.0009 0.0010 0.0070 0.0038 0.0026 0.0025 0.0015 0.0045 0.0066 0.0012 0.0022 0.0030 0.0050 0.0067 0.0036 0.0042 0.0051 0.0111 0.0042 0.0046 0.0033 0.0028 0.0066 0.0073 0.0036 0.0012 0.0042 0.0016 0.0010 0.0009 0.0035 0.0031 0.0024 0.0012 0.0019 0.0039 0.0045 0.0011 0.0023 0.0037 0.0012 0.0055 0.0051 0.0048 0.0041 0.0130 0.0106 0.0012 0.0052
0.0027 0.0016 0.0042 0.0060 0.0079 0.0020 0.0043 0.0056 0.0080 0.0013 0.0008 0.0010 0.0087 0.0032 0.0021 0.0025 0.0016 0.0033 0.0062 0.0012 0.0021 0.0035 0.0058 0.0052 0.0024 0.0039 0.0045 0.0068 0.0036 0.0035 0.0030 0.0017 0.0061 0.0063 0.0030 0.0011 0.0058 0.0020 0.0010 0.0011 0.0048 0.0036 0.0023 0.0011 0.0017 0.0033 0.0038 0.0010 0.0022 0.0033 0.0012 0.0036 0.0052 0.0046 0.0022 0.0076 0.0061 0.0010 0.0035
