Fp1 Fz F3 F7 FC5 FC1 C3 T7 CP5 CP1 Pz P3 P7 O1 Oz O2 P4 P8 CP6 CP2 FCz C4 T8 FC6 FC2 F4 F8 Fp2 AF7 AF3 Fpz F1 F5 FT7 FC3 C1 C5 CP3 CPz P1 P5 PO7 PO3 POz PO4 PO8 P6 P2 CP4 C6 C2 FC4 FT8 F6 F2 AF4 AF8 Cz AFz
3.6337 1.5155 2.2112 2.3506 0.9440 0.9557 0.6029 1.2253 0.4751 0.8940 1.2159 0.5396 0.6164 1.7218 1.5434 1.5023 1.2075 3.7587 1.3808 0.5171 1.4269 1.9715 4.3230 2.6466 1.0792 5.5966 11.6815 5.6665 2.7219 4.0459 4.2729 1.5808 1.2415 3.1870 1.2966 0.7609 0.7825 0.6170 1.1957 0.7389 0.5462 1.1479 1.1506 1.1235 1.2640 2.2833 1.3627 0.8242 0.7201 3.2005 0.4135 1.3986 5.7868 13.7099 1.6913 2.7786 10.1813 1.0030 1.9418
61.3418 25.8924 63.7601 61.7834 18.9414 16.4919 14.1874 20.6256 9.8105 14.4032 19.5304 7.7455 10.6836 22.5006 22.3891 22.5790 17.4604 51.0643 20.2639 8.4829 25.0029 42.5002 71.5513 53.0417 26.0373 156.5252 331.6460 45.9791 52.2373 80.6153 82.7260 33.1484 18.3768 85.6556 44.0795 14.9855 19.9228 12.6798 13.7924 9.0370 8.1833 15.0129 17.5391 17.5449 17.4546 38.2861 24.1944 12.0956 10.3728 80.4861 6.5607 27.3778 122.8793 432.0082 25.5566 48.3708 268.0804 16.5722 30.7376
1046.2938 554.7441 736.4842 845.1780 311.6251 356.5312 224.1407 401.9242 203.2497 318.4915 401.9337 172.3405 184.5067 516.6047 480.0321 472.4798 268.0723 646.6702 303.7029 185.3788 539.1263 512.2562 934.3273 685.8622 403.0096 1932.1926 3565.0920 698.4750 775.4267 1143.7821 1311.5359 565.7402 337.1302 1207.7220 508.0349 295.8792 282.1056 239.7949 396.3533 238.3570 181.8849 306.6592 354.9699 385.7375 349.7046 663.6602 361.6607 246.3064 197.8111 965.6854 158.9157 405.7503 1654.7366 4512.4727 508.3080 757.0716 2994.9463 373.4080 593.4329
1669.6675 1238.2576 827.9454 1120.8368 560.0680 766.8026 364.3568 721.7052 411.5180 705.1558 872.2275 368.6389 379.3169 991.3792 969.3381 943.1356 454.5091 1093.8274 517.1748 423.4117 1332.8629 527.1637 1346.6907 777.9492 719.1152 2127.3799 2842.0894 1259.9692 1162.2124 1540.5143 1945.1075 1043.5391 796.9697 1515.0371 575.2418 586.3799 401.4865 463.2371 999.3959 577.9388 394.2469 625.5422 657.4481 746.8051 651.3591 1230.9009 591.4532 527.3488 400.0733 1025.5336 390.0106 567.2889 1874.8989 3607.1421 999.3475 1277.5695 2840.6980 885.7301 1116.2625
1347.7640 1076.9955 660.4281 697.4528 434.4024 692.0222 268.0414 527.3713 329.5645 635.6679 723.4405 328.0676 284.2398 698.8481 657.9293 675.2082 352.0862 723.5787 406.5304 346.5005 1058.7712 326.0384 917.2399 432.5054 576.9880 1315.5615 1137.4559 1100.8925 899.8974 1185.3938 1469.8822 883.9010 684.0270 919.1342 438.6910 470.7362 275.8906 411.3272 903.9911 540.0314 300.3895 443.1243 507.6017 542.5631 499.3152 861.3709 430.4759 402.8462 340.2099 564.9886 263.6274 415.2554 1003.4142 1487.3994 942.5659 1080.4126 1597.8647 690.2165 970.3828
1069.8792 785.8246 529.6668 435.6568 295.8724 523.0344 174.8544 356.3218 209.4378 419.5258 485.4655 209.0106 185.8025 487.0463 436.9105 451.8756 212.2388 399.7452 237.2457 225.4938 726.1650 187.6196 518.6139 266.8612 398.6480 942.2499 492.7169 881.8250 729.2626 935.1965 1070.6443 670.9347 529.7822 534.1661 322.3869 323.8913 188.0282 250.4408 587.6581 363.8200 196.1256 310.0619 348.4974 362.7844 342.4219 542.6031 254.0479 265.8008 218.2058 292.4218 183.2177 296.6008 539.6783 723.0259 766.6046 915.6427 1012.4927 465.9764 762.5810
720.1046 562.6314 387.9539 303.8380 208.4096 377.9709 125.8096 226.1487 125.0352 269.1476 303.3284 138.9901 116.9709 343.9625 290.5101 286.3581 134.6895 229.1277 151.0946 150.5090 508.6737 122.5661 279.6592 169.2745 309.5706 686.4197 268.8669 597.7466 488.2825 631.3944 711.3500 477.4242 382.2252 352.2139 264.5735 226.2888 114.2552 163.6721 375.4138 230.3332 127.4249 217.8456 244.1367 254.4473 226.3925 318.9693 158.8852 165.7073 144.8398 161.2738 131.9716 223.6827 304.8895 438.9324 593.0203 640.0568 631.8874 318.5017 522.6448
483.2076 389.4677 275.5528 218.4881 146.9529 285.2469 97.1115 137.3351 86.8455 198.0981 196.5034 96.6950 86.7601 250.6636 210.7755 215.2652 85.0443 155.7114 101.0997 110.8620 376.7237 87.3200 184.9387 120.9871 229.5164 462.0821 166.3894 406.2752 333.8991 413.4908 494.1163 327.4716 284.5259 209.7027 202.8590 178.8030 77.7295 120.9971 276.2263 152.0097 87.5349 153.0070 173.3854 179.2497 162.6419 238.7138 105.4862 104.1793 100.1669 110.7288 105.5488 166.9898 200.2619 283.7686 405.1186 411.6179 439.2621 249.2770 338.1806
351.1070 281.7576 203.3098 166.7950 115.5630 218.0138 69.7316 106.3538 60.5820 146.7611 144.8030 65.3951 61.3945 188.1935 161.8863 160.3792 63.6784 109.9545 69.6104 83.2864 284.0866 63.4839 133.3691 91.3591 166.8725 314.9857 116.9167 300.5305 253.9778 296.0565 351.5866 237.2441 219.2264 158.0724 159.2469 136.6121 55.7660 83.7003 211.7520 108.5986 61.0873 112.6916 122.3331 130.4714 122.3595 174.7140 76.8059 77.3369 71.7029 76.1870 81.3984 118.7035 144.1864 197.7879 279.9996 287.7378 320.2620 192.2046 234.7380
264.6789 217.8570 151.6028 125.8883 87.2587 170.2494 54.7625 75.9650 46.7497 110.8242 100.0039 51.3840 48.8244 148.9152 128.8964 126.1806 47.0509 83.8608 52.2983 68.4653 218.6446 49.0194 97.2619 72.1187 124.9061 249.6493 91.8726 241.7384 185.7155 214.8956 271.4963 179.5621 168.2985 108.6058 120.6013 113.4613 42.6956 64.3581 162.1088 76.3952 48.0607 91.3414 96.9434 103.5596 96.5005 136.2018 57.6475 54.5505 57.4402 55.8658 64.0472 92.1084 109.2636 162.4966 215.6595 226.2012 261.7241 153.9185 172.0172
195.4972 167.6708 112.1248 95.8554 66.8483 134.1382 46.1786 60.0710 35.5101 85.4518 75.8656 39.8292 39.4431 123.1024 108.4651 103.9695 38.2679 68.7748 41.1438 51.1217 181.6181 39.1478 77.0789 54.3643 108.3511 184.0844 70.6256 187.7187 135.3009 158.7834 206.7765 135.7722 123.1060 89.2040 92.4575 93.3357 33.9049 49.1031 122.3560 57.8914 38.0012 74.8775 78.6084 85.3939 75.8553 116.3882 48.1807 41.6496 44.3369 43.4382 54.8091 71.9971 86.6316 116.0952 167.1088 169.7600 198.6522 125.1125 130.0585
147.1666 139.1964 89.7354 79.9410 58.6839 111.7645 37.4532 48.5133 30.7567 71.5429 60.6029 31.8226 33.6347 107.3299 94.6898 92.1697 32.2665 55.9457 33.3081 44.1768 153.5013 35.0094 62.3683 45.4045 89.9931 149.3642 55.8100 148.7516 106.2703 119.6501 157.2687 110.4418 102.3030 73.9144 75.7699 80.2179 27.8217 40.5273 105.1174 45.7117 31.2305 63.8487 67.5820 73.2271 66.6978 102.0778 40.3362 33.6767 39.1892 34.3242 47.3350 61.4540 71.4044 94.6174 137.0234 132.6909 155.2495 109.0260 100.1157
110.2968 109.2541 77.8255 63.0929 49.2249 100.7086 35.1537 41.7543 25.7309 61.7936 50.6184 27.7985 29.2886 96.5562 86.1472 79.3070 27.1821 49.7896 27.9156 39.7500 133.4843 30.2974 51.2902 40.1042 80.5886 120.5518 48.1940 107.5360 85.8691 92.6739 117.4658 89.1539 83.8178 62.0838 68.6682 77.2922 23.5738 35.8232 90.4697 38.4242 27.1916 56.3274 59.2417 64.3341 56.1478 89.4810 34.1955 29.1876 33.7838 29.4796 46.4617 52.0407 59.2283 77.9496 112.1497 97.6102 123.8974 103.8970 73.9689
84.9028 97.3816 60.3465 56.6033 44.2609 86.6688 31.5566 36.0278 22.7048 53.2201 43.8357 24.3174 26.4262 87.7111 82.5300 73.2441 24.8935 44.4980 24.6817 34.7988 118.7450 26.7475 45.0616 32.7239 71.0771 94.0130 41.0245 83.8504 67.5366 70.7080 91.4906 75.7292 71.8749 53.4882 54.7800 69.6260 21.1612 31.2960 77.3247 33.6181 23.8570 50.9200 53.0621 60.7969 53.0872 82.7258 31.5366 25.6492 30.0412 25.9142 41.6724 41.8998 50.4103 62.6791 93.7324 73.8107 102.2108 91.9923 60.5364
67.6757 89.4890 50.7742 48.9063 40.0604 85.7667 29.3309 32.7055 20.4243 48.7121 39.4647 23.0103 25.1249 84.8798 81.8434 69.2486 22.9769 40.8411 22.3932 32.0421 117.2402 24.5520 41.2195 30.0767 69.1736 78.5411 37.4497 70.3630 53.6858 56.7676 76.0450 67.7400 60.2096 48.9986 50.5899 67.9902 18.7020 28.5754 71.3003 30.8058 22.0457 47.7864 51.0610 57.9158 48.5528 77.7065 28.9756 23.6208 26.6757 24.0123 40.9656 36.9821 45.2640 53.7149 84.8271 59.5465 87.7199 90.6713 51.6165
57.8762 81.1194 45.8384 42.8226 37.3280 78.0779 26.4960 27.5524 18.3560 46.6366 36.2373 19.9269 22.7703 80.3381 77.0155 65.5741 21.8606 39.7415 20.0090 30.3294 109.9857 22.6067 35.2920 26.4019 64.9605 70.0340 33.0751 57.8315 45.2157 50.9438 62.5145 60.4316 52.5749 44.5884 45.1410 65.1833 17.0758 25.8638 68.2381 27.3533 19.6161 44.7218 46.6239 52.6689 46.3724 75.5515 28.1671 22.1202 25.2877 20.9210 38.5883 33.0216 39.3796 46.9008 78.3851 50.3213 74.4727 87.4045 45.0519
49.9966 73.4913 39.0695 39.1340 33.3188 72.8238 25.7049 25.1497 17.0352 45.1655 34.8131 18.7349 21.6092 78.8826 78.7963 63.3870 18.9009 36.5971 17.7938 29.5926 100.4267 21.6748 31.5138 23.3677 56.9826 60.5213 28.9777 49.6313 38.6619 43.1162 55.8094 54.1152 47.0210 40.7340 40.2264 63.2936 15.1578 24.7547 66.2576 25.9472 18.5854 42.7845 45.7178 53.9598 43.1951 71.2478 24.6922 20.8886 23.1013 18.6595 36.5652 29.5359 34.0377 40.7999 68.5373 42.8114 64.5500 83.2779 40.0384
44.7050 63.2053 34.7589 35.8398 31.7439 64.8538 24.1098 23.6337 15.7320 43.9291 34.4099 17.0278 21.3979 72.6704 77.4047 60.5857 17.5605 33.4824 16.8594 29.1641 89.6437 19.8099 28.4580 21.6613 50.7953 53.1269 27.1616 45.3380 34.4281 39.0454 51.0124 47.5292 42.3228 39.3190 34.3684 62.6858 14.4813 23.1200 66.4611 24.6100 17.5176 39.7468 40.7935 51.0463 39.9129 65.4188 22.6887 20.4305 21.6540 17.3942 35.2703 25.8718 30.6546 37.3470 59.3877 37.3929 59.7295 82.8334 35.4286
37.1470 58.6065 31.5171 30.9545 28.2815 61.5319 22.5494 20.3686 14.0500 40.1009 30.9005 15.9579 20.2429 72.5298 77.2606 61.7634 16.8354 33.9038 15.2133 26.2867 84.1912 18.4432 25.4158 18.8262 47.8868 47.3096 23.4429 38.2683 29.1932 33.3980 42.3215 44.4186 37.4529 33.3407 32.1554 57.5066 12.9129 21.7391 58.6666 22.6524 16.1650 39.9856 40.3138 50.5168 39.8781 66.2645 22.2765 18.9457 20.3941 15.3557 32.4061 23.9009 26.7550 32.6972 53.8966 32.4842 51.8881 75.0160 32.1310
33.6340 54.6688 29.2776 28.1722 25.4016 52.2173 20.0449 18.4900 13.4795 37.9540 30.1021 15.1423 20.5197 70.0926 76.3344 59.8696 15.3715 32.0837 14.2801 25.1343 74.0172 16.2098 24.1559 17.7582 41.2962 44.0010 21.5014 35.4769 25.4713 31.2947 39.2636 41.2396 33.9821 29.3353 28.2725 51.0105 12.0505 20.2702 57.4141 21.1318 16.3221 39.4569 37.8468 49.0765 38.0176 63.9242 20.5596 18.1276 18.6010 14.4177 28.8816 21.3939 25.0706 30.2237 49.8112 31.5343 46.2331 68.3060 30.9945
30.8137 48.7087 25.9829 24.6764 21.6939 48.5219 18.1544 16.8819 12.9418 34.6268 27.2506 13.9549 19.0640 68.0708 76.8656 57.4338 14.1573 31.7253 13.0669 22.2869 65.6965 14.7195 22.6508 16.2587 36.1895 39.0372 20.2092 32.5072 23.7366 27.7405 35.5798 37.4839 29.3310 25.6185 25.9734 45.6010 11.0804 19.1390 51.2184 19.8310 14.6373 36.1422 35.6942 48.6396 37.8914 62.0490 19.8529 16.2548 16.5417 14.0250 24.9533 18.8377 22.9345 27.8293 44.0455 27.8913 42.4012 59.6203 26.9013
26.7634 42.9897 24.2262 23.3245 21.0944 41.5866 16.1220 15.7703 11.1412 32.0385 26.3981 13.1238 19.0964 70.4925 83.4972 58.1798 13.9904 31.7098 12.5838 21.2886 56.4089 13.6560 20.4672 14.5747 31.3838 35.3055 18.8949 28.2266 21.0731 25.3039 31.4690 33.7695 27.5007 24.5886 23.6132 39.8562 10.2546 17.3060 48.1506 18.9469 13.9934 35.0688 35.8712 50.1059 37.1942 59.4662 19.9606 15.9837 15.9748 12.2516 22.5601 17.0164 21.2025 25.2385 39.2387 25.7906 36.9733 53.1163 25.1836
25.7311 40.3230 22.6996 20.6303 18.4288 37.1580 14.3341 13.8828 10.6868 26.4631 22.8294 12.3609 18.4897 66.7365 81.9263 55.5546 12.8858 31.9549 11.8733 17.8269 50.4037 12.2741 19.3541 13.2460 28.4479 32.7230 16.9419 25.1360 20.0993 24.3189 28.1692 31.5366 24.6860 21.0746 21.9921 33.5515 9.4075 15.6496 39.3545 16.6112 13.6257 33.2570 34.3130 49.9224 34.8140 58.7226 19.0802 14.1304 14.7311 11.7400 19.1364 15.4669 19.4824 22.4865 37.2926 23.3865 33.6919 44.5630 23.8399
23.0560 36.9156 20.8198 18.5701 16.8079 33.9675 12.7992 14.0432 10.2631 25.3525 22.2495 12.1879 19.0430 67.4498 83.2805 57.3412 12.3031 30.9182 11.1325 16.7138 46.6028 11.5745 18.6915 12.2202 26.0444 30.6751 15.9000 23.5636 18.5215 22.1840 26.0963 29.2686 22.3103 20.0175 19.8428 30.8442 8.7589 14.4529 37.7670 16.2992 13.8274 33.4178 33.7041 49.5964 35.6710 58.3450 18.3294 13.6375 13.5970 10.8197 17.7091 14.9058 18.2330 21.0890 34.0669 21.8169 30.8853 41.5934 22.0224
21.4153 33.1672 19.7032 17.6212 15.7277 29.3659 11.7332 13.2894 9.8799 22.4962 21.7599 11.6895 19.3572 66.3015 84.4169 56.4215 12.1032 32.1561 11.0410 15.3594 40.5386 10.4781 18.3242 11.5377 23.1480 28.6711 14.9040 22.5324 17.7738 20.6395 23.5936 26.1387 21.1485 18.4194 18.9327 26.2178 8.3570 13.1108 34.4703 15.7321 13.7706 32.7532 33.3895 50.4943 34.9655 56.5269 18.5210 13.3865 12.7395 10.5162 15.4185 13.5857 17.7963 19.8500 31.3258 20.8591 28.6624 35.7457 20.2418
20.1690 32.1657 18.8450 16.8608 14.7301 28.5119 10.6798 13.1946 9.6476 20.9882 19.7562 10.9905 20.1646 65.6768 87.9905 54.9703 11.2932 31.8797 10.7232 13.8065 39.4536 9.2851 17.9027 11.2679 22.4004 27.0101 13.9840 20.0697 16.9959 19.5686 22.0979 25.5174 20.1231 17.7208 17.7267 24.6761 7.9925 12.5605 31.0737 14.4831 13.5832 31.8358 31.5430 49.5825 33.0859 53.7000 18.2510 12.1149 11.9072 10.3535 14.1842 12.4826 17.2215 18.4613 30.0792 19.5115 25.8205 33.5481 19.0982
18.5278 29.4045 17.4431 15.5800 13.1846 25.5154 10.3698 13.1816 9.5106 18.8609 19.0951 11.0645 20.6151 63.9718 91.4549 56.2326 10.9442 33.4429 10.1184 12.2007 34.6290 8.8306 17.4150 10.0990 20.9097 26.4921 13.2962 19.0223 15.8375 18.4059 20.6430 23.2230 18.3027 16.8308 16.6512 22.0346 7.7040 12.2678 27.3035 14.2921 13.7185 30.5991 30.5278 52.1126 34.1421 55.0890 18.5667 11.6721 10.9942 9.9167 12.6552 11.8676 16.4914 17.5637 29.0413 19.1736 25.2804 29.2035 18.4180
17.9682 29.8563 17.1251 14.6299 12.2027 24.7178 9.9726 13.5149 8.9356 17.8391 18.9030 10.2917 21.5531 65.3673 95.2581 58.7717 10.6075 33.4184 10.3821 11.2202 33.1207 8.6063 18.0283 9.9261 19.9112 26.2310 13.0801 18.2810 15.7332 17.9771 19.8397 23.6955 17.1216 16.0099 16.6807 20.0270 7.2984 11.1767 25.7316 13.6457 13.7601 31.8278 30.6737 54.2466 35.4175 54.4120 17.9626 11.7557 10.7497 9.8637 11.5383 11.5659 16.7127 17.1900 29.1306 19.2128 22.9514 26.4743 18.4627
17.0174 28.5314 16.5135 14.4877 12.3079 22.9640 9.2771 13.6439 9.2324 16.0833 18.0861 10.5751 20.8097 66.5315 96.1857 57.0501 10.4373 32.7057 9.9239 10.8687 31.2965 8.1096 17.7492 9.5378 19.2132 25.6635 12.3683 17.0307 15.1680 17.1968 18.5795 22.6805 16.7946 16.0578 15.8690 18.4991 7.3274 10.6732 23.8064 13.2311 13.6795 29.6735 30.8913 53.6482 33.7536 51.6610 17.5138 11.3205 10.5080 9.3211 11.0943 11.1392 16.1896 16.3665 28.4929 18.4038 22.0131 24.6888 17.7186
16.8130 28.8145 17.6419 13.5375 11.7512 23.3664 9.2013 14.1114 8.8469 15.3272 18.6177 10.9014 22.1075 66.6906 101.8266 61.0217 10.6924 34.8963 10.5051 10.1352 30.5561 7.9236 18.4804 9.1113 18.7608 24.6414 12.0245 15.8451 15.0585 17.9943 18.2047 23.9274 16.3762 15.6003 16.6919 17.6751 7.0126 10.4983 21.7183 13.9663 14.1369 28.8862 30.4404 56.5118 36.3281 54.1302 18.4824 11.6475 10.5923 9.3861 10.2897 10.7803 16.0509 16.0426 27.7377 17.2227 21.1438 22.9172 17.9062
16.0301 28.5331 16.6598 13.1646 11.3651 22.0848 8.9635 14.6839 8.8670 15.4596 19.4749 11.0934 22.3364 66.1144 103.1571 60.7625 10.7106 34.8817 10.3984 9.9414 28.9594 7.5846 19.1590 9.0120 18.3393 26.0127 12.0479 15.3558 14.2555 17.0071 17.4500 23.2192 15.5035 15.7202 16.0439 17.0157 6.9842 10.5394 21.9223 14.3191 14.4339 28.6978 30.7282 58.0572 36.3256 52.5010 18.0967 12.4375 10.2587 9.4812 9.8177 10.9510 16.5124 16.1078 28.8215 17.9066 20.1857 22.1836 18.0003
15.1768 30.2706 18.5540 12.7976 11.3732 21.5304 8.8613 15.2884 8.5830 15.1913 19.3376 11.1741 22.9025 65.3421 99.3552 59.7307 11.0780 35.5127 10.8127 9.5806 28.2691 7.4978 20.5553 9.0396 18.8112 27.2845 11.6389 15.3245 14.1982 17.2703 17.0208 24.7833 15.9344 15.6617 17.2232 15.8289 6.8886 10.2177 21.4411 14.6138 14.3457 28.6827 30.5999 55.4051 35.9029 53.6052 18.9359 12.1252 10.1259 9.8231 9.0967 11.1892 16.8573 15.8946 31.0977 18.2950 19.3804 20.2498 18.3473
14.7118 31.3874 19.9388 13.1338 11.8713 22.3013 9.4033 15.6562 8.6854 15.2779 19.6651 12.0599 22.9050 64.3185 93.6659 55.7675 11.4299 35.6536 10.5630 9.4505 28.3684 7.6233 20.6460 9.1168 19.5761 30.3563 12.0780 15.1455 14.4811 17.5489 16.9188 25.6996 16.7382 16.4269 18.8202 16.1935 7.0432 10.4884 21.3216 15.1752 15.2278 28.9989 31.4616 53.6431 35.3283 52.8864 19.2334 12.3691 9.9236 9.5515 9.4366 11.8873 17.1755 16.7378 34.3803 20.1344 19.1560 20.4661 19.6927
14.4708 29.4595 20.9526 12.9691 12.0846 20.9485 9.4867 16.5878 8.6654 15.2937 20.5733 12.4774 22.3294 63.3043 89.5946 55.6460 11.4967 34.2925 10.6365 9.6334 25.7208 7.5726 21.3391 9.1489 18.8287 32.7434 11.5791 14.5442 14.7264 17.5181 16.5064 24.6008 17.2131 16.4402 20.1215 15.4991 6.9842 10.3304 21.6092 16.0340 15.1910 28.7458 32.0360 52.1922 34.6680 51.6640 19.1187 12.6985 9.9160 9.5662 9.0080 12.6002 16.7155 17.2966 35.0050 21.0178 18.2359 19.3946 19.0556
13.9162 30.6552 21.4980 12.5676 12.0526 20.1625 10.0146 16.3702 8.6923 15.8131 21.0824 13.3423 21.7605 60.0828 80.2803 51.7536 12.8700 34.6964 11.7601 9.6393 24.3826 8.0403 21.6713 8.9819 18.6921 35.4530 10.9920 13.6263 15.5982 17.5610 15.9622 24.9830 17.2583 16.1692 20.7166 15.3050 6.8696 11.1193 21.5877 17.0441 15.3189 28.4940 33.1424 50.5169 34.3197 52.5689 20.7563 13.1890 10.8145 9.7306 8.8229 12.9757 16.4650 17.3298 38.3154 21.9067 16.8845 18.4145 19.8524
13.6220 29.3067 22.3456 12.4947 11.9229 19.8636 10.8143 16.5370 8.6501 15.8924 22.8208 14.8746 21.6228 58.6676 75.1217 48.4930 14.3639 34.3114 11.7275 9.6140 23.8167 8.5932 20.4925 8.8844 19.7146 38.4125 11.1159 13.3587 16.3506 17.4354 16.5920 23.6943 18.0867 16.2189 21.6290 15.8836 6.8771 11.3566 21.9396 18.6155 16.1504 28.9504 35.7220 50.8060 34.7294 50.1854 21.7086 14.5822 11.2765 9.5722 9.0791 13.9399 15.9373 18.0166 39.9764 22.3922 16.5754 18.6814 19.0284
12.8448 27.2624 22.9248 12.4676 12.1145 19.1574 11.2983 17.0244 8.7836 15.4579 22.9522 15.2234 20.6774 55.6461 67.5716 44.8164 15.4478 33.3046 12.1766 9.2636 21.7227 8.8858 20.5260 8.6640 19.7944 42.9132 10.3393 12.1105 18.1737 17.3227 15.0467 21.8006 19.1928 16.3821 22.9849 15.5398 6.7578 11.4340 20.9923 19.0076 15.9634 27.9228 35.9770 50.1274 34.6648 48.6747 22.2682 15.1697 11.4571 9.4658 9.2288 15.1360 15.2364 19.0947 42.0442 24.3647 14.9665 17.4572 18.5426
11.3824 24.1593 21.8494 11.9886 11.7612 18.7047 11.9327 15.0125 8.6985 13.5724 21.4981 15.2009 18.8214 51.6772 57.5097 39.3130 16.1941 30.3466 12.1775 8.6145 20.0677 9.2565 18.3944 8.6891 19.0321 43.3177 10.2147 11.3493 17.8168 15.3371 13.3840 19.4385 18.7062 15.2009 23.9059 14.4781 6.5734 11.1328 19.1427 18.0222 15.5204 27.3259 36.0792 47.8629 33.7760 45.9179 22.0243 14.6235 11.8903 8.8293 9.1467 15.5985 13.8368 19.7079 39.8781 24.1623 15.1528 15.9677 16.2245
10.2245 19.9695 18.6355 11.1146 10.8517 17.7108 11.2387 12.5077 8.0558 12.5356 20.6958 15.1155 16.4117 47.3526 50.3653 35.9002 15.7656 26.6515 11.7778 8.0922 18.7400 8.6804 16.2940 8.4962 17.8079 39.3424 9.7264 10.5728 16.5982 12.6341 12.1717 15.6966 16.9089 13.1567 22.2132 13.1756 5.9960 10.6331 17.8555 17.8993 14.4250 25.5959 34.5671 43.2408 30.7104 41.6598 20.0622 14.3057 11.7999 8.4207 8.5909 14.8173 12.4773 19.2856 34.4057 21.7511 14.4158 14.5424 12.9518
8.8716 15.9221 14.8218 9.7049 9.3250 15.4574 9.7718 10.6021 7.3425 10.4982 17.5068 13.1805 13.4152 41.4577 44.3997 32.3655 14.1142 23.3614 10.3233 7.1334 16.1764 7.6128 13.8219 7.6870 14.8027 32.7345 8.5046 9.1992 14.0557 10.5509 10.4585 12.7658 14.1275 11.1250 18.2171 11.1318 5.4437 9.8649 14.9405 15.1519 12.2473 22.6403 29.2343 37.3851 26.9590 36.7331 17.7738 12.4330 10.8076 7.4138 7.1158 12.7808 10.9930 16.9176 27.2516 18.1234 13.0676 12.2287 10.5004
7.9971 13.1549 13.0106 8.6241 8.1800 12.7305 8.3911 9.1308 6.5152 9.5931 15.3450 11.3056 11.6253 36.6177 37.5380 28.2396 12.0927 19.7081 9.4207 6.4358 13.4816 7.2262 11.9469 6.9119 12.4280 27.6577 7.9674 8.1650 12.3095 9.2675 9.3521 10.5673 12.6901 9.5834 15.4934 9.5211 4.8904 8.9950 13.4483 13.3114 10.3982 20.0166 25.6543 32.5840 22.9067 31.9725 14.6612 10.7977 10.4506 6.7185 6.3643 11.3025 9.7640 14.8726 22.5547 15.1801 11.8876 10.8255 8.6393
6.9479 11.1743 11.0583 7.7751 7.3886 11.0339 7.2182 7.9535 6.2971 8.7817 13.7015 9.9513 10.1861 33.0799 34.1372 25.0952 10.1504 16.7156 8.8081 5.7602 11.5642 6.5887 10.8482 6.4520 10.5935 23.1084 7.1967 7.3474 10.3980 7.9881 8.3237 9.2993 10.9018 8.4090 13.2935 8.2370 4.5488 8.3560 12.1897 11.7200 9.1249 17.1514 22.0420 28.3879 19.3904 28.5794 12.1548 9.4818 9.6414 6.4187 5.3762 9.7715 8.8028 13.3415 18.4106 12.7990 10.9167 9.3866 7.5074
6.2388 9.9943 8.9196 6.7596 6.1955 9.8154 6.2345 6.8424 5.3288 7.6368 11.1709 7.9960 8.6521 29.7982 30.1834 22.4855 8.3348 13.8482 7.0925 5.3048 10.8954 5.5889 8.9278 5.4390 9.2649 18.7357 6.1748 6.7854 8.3216 6.6676 7.5096 7.9484 9.1678 7.2667 10.5494 7.5379 3.9599 7.2124 10.5037 9.3907 7.5739 15.6646 18.8225 24.3590 16.9280 23.9911 9.9621 7.7495 8.3112 5.2862 4.7627 8.0778 7.3890 10.9915 15.4545 10.6370 9.8625 8.5583 6.3973
5.7550 7.9550 8.0840 6.0396 5.3684 8.4141 5.4279 5.8662 4.7938 6.8616 9.0677 6.7571 7.3729 26.3222 25.8981 19.9398 7.1527 11.8254 6.1910 4.7653 9.1835 5.3107 7.8310 4.9889 7.6139 15.2833 5.6122 6.0023 7.5539 6.2118 6.6293 6.6706 8.2263 6.0143 9.1354 6.5231 3.4833 6.6216 9.0663 7.7778 6.3770 13.6552 16.1938 20.7127 14.9384 21.7218 8.4565 6.3757 7.6734 4.7972 4.2191 6.8140 6.5481 9.7687 12.1008 8.6670 8.9673 7.4012 5.2220
5.2993 7.3702 7.0688 5.5847 4.9864 7.5919 4.8666 5.2240 4.3512 6.1587 8.2857 6.1491 6.7367 24.5130 24.7106 18.6230 6.4143 10.8727 5.8397 4.5701 8.5702 4.8764 7.3695 4.4734 6.9974 13.0148 4.9192 5.5224 6.6465 5.5568 6.2913 5.9669 7.4924 5.5664 7.7565 6.0202 3.2067 6.0522 8.4255 6.9307 5.7838 12.1848 14.8840 19.0969 13.4697 19.8013 7.6239 5.9041 7.1937 4.4958 3.9646 6.0134 6.1559 8.3372 10.8272 7.3236 8.3185 7.0156 4.7523
4.8469 6.3641 6.0334 4.8312 4.3263 6.9916 4.4943 4.7039 3.9215 5.5521 7.4525 5.4116 5.8403 20.9509 21.2895 16.4035 5.5277 9.5712 5.1677 4.2693 7.9148 4.8451 6.3380 4.1835 6.3581 11.1125 4.4938 5.0636 5.6688 4.8904 5.5912 5.1844 6.3456 5.0574 6.8381 5.6805 2.9918 5.5621 7.7184 6.1753 5.0464 10.8734 12.5512 16.4885 11.7844 17.5874 6.6783 5.1191 6.7972 4.0815 3.7514 5.3671 5.4460 7.3116 9.2485 6.3588 7.6091 6.6086 4.0689
4.7637 5.8870 5.7405 4.4867 4.0643 6.4933 4.0404 4.1093 3.6665 5.3317 6.5738 4.7630 5.3466 19.5267 19.0023 14.8937 4.8113 8.6258 4.6309 3.9691 7.5427 4.5342 5.4857 3.8901 5.7518 10.1729 4.3670 4.8428 5.2691 4.7394 5.5553 4.9017 6.0195 4.3920 6.3202 5.3088 2.7284 5.1356 7.2944 5.4077 4.5624 9.7461 11.4484 14.6946 10.6683 16.3494 5.8478 4.4343 6.2578 3.6732 3.5211 4.9804 4.9846 7.0064 8.3385 5.8276 6.9792 6.3503 3.8373
4.3893 5.3750 5.2275 4.2824 3.6257 6.0151 3.7543 3.8868 3.3792 4.9060 6.0100 4.1899 4.8822 17.5004 17.9008 14.3069 4.4128 7.6319 4.2963 3.7808 6.9696 4.1400 5.2339 3.7915 5.2017 8.8698 4.0141 4.5470 4.9781 4.4156 5.1371 4.4890 5.5904 4.1051 5.5230 4.8298 2.4604 4.8233 6.5145 4.8834 4.0911 8.9343 9.8887 13.5325 9.9978 14.6848 5.1872 4.1926 5.8876 3.4717 3.1068 4.5307 4.6723 6.3317 7.3187 5.1521 6.8338 5.5756 3.5355
4.1765 5.0100 4.7972 3.8432 3.4079 5.7472 3.5927 3.6653 3.2445 4.7745 5.5171 4.0873 4.5018 16.2955 16.0354 13.2246 3.9742 6.9917 4.0455 3.5233 6.5945 3.9770 4.8069 3.4172 4.6887 7.9666 3.6497 4.2424 4.5270 4.2035 4.7680 4.3028 5.0225 3.8732 4.9766 4.7860 2.4055 4.8254 6.2364 4.5725 3.8170 8.2182 9.5273 12.3673 9.1046 13.7922 4.8007 3.8052 5.4015 3.2908 2.9358 4.0541 4.3527 5.7077 6.5871 4.7669 6.3005 5.5179 3.3465
4.1006 4.8869 4.4009 3.8004 3.2625 5.5774 3.3182 3.4131 2.9164 4.4866 4.8349 3.6311 4.0839 14.6478 14.6804 11.6496 3.7222 6.6363 3.7018 3.3065 6.6115 3.7061 4.3449 3.1873 4.4225 7.0490 3.4216 3.9555 4.1958 3.9837 4.6725 4.1521 4.7990 3.7460 4.5124 4.6998 2.1925 4.3751 5.7654 3.9893 3.4793 7.5122 8.4832 10.9805 7.9666 12.3952 4.6058 3.3801 5.0907 2.9711 2.7709 3.6295 3.9931 5.1593 5.9998 4.3235 5.8881 5.4687 3.2765
4.1211 4.7718 4.2939 3.5997 3.1731 5.6178 3.0772 3.1474 2.8267 4.0455 4.3037 3.4479 3.8884 13.3168 13.5040 10.5015 3.4614 6.0461 3.4238 3.2505 6.6591 3.6569 4.0038 3.1675 4.1904 6.4816 3.3006 3.8852 3.9458 4.0026 4.5498 4.0843 4.6657 3.4752 4.2961 4.3940 2.0739 4.2530 5.2812 3.5387 3.3315 6.8017 7.6713 10.0042 7.2437 11.0780 4.1324 3.0963 5.0004 2.7933 2.7139 3.4146 3.6768 4.9733 5.5879 4.1098 5.9551 5.2086 3.1562
4.1206 4.8019 4.0712 3.5513 2.9741 5.4519 2.7588 2.8602 2.6089 3.8680 4.0253 3.0474 3.7500 13.2797 13.1779 10.1806 3.1098 5.6314 3.3371 3.0349 6.6843 3.3812 3.7315 2.9885 4.1723 5.8579 3.1337 3.8126 3.8728 4.0776 4.4411 4.0039 4.5450 3.3359 3.7904 4.1568 1.8437 3.9968 4.9693 3.2436 3.0776 6.6892 7.2519 9.4999 6.9639 10.5599 3.8999 2.7591 4.7689 2.6357 2.5691 3.1460 3.6185 4.6166 5.3500 3.7998 5.5821 4.9351 3.1245
3.9970 5.0606 3.9661 3.5369 2.9587 5.8321 2.8491 2.7305 2.4769 3.8776 3.6674 2.9891 3.4050 12.0960 11.4700 8.8706 2.9507 5.2851 3.0489 2.7990 7.3845 3.1653 3.5028 2.9014 4.1771 5.5063 2.9811 3.8631 3.7383 3.9420 4.4184 4.1080 4.5325 3.2290 3.6323 4.5586 1.8387 3.9232 4.7156 3.1318 2.8454 6.1410 6.7884 8.1723 6.0605 9.7891 3.6388 2.5753 4.4054 2.4215 2.5497 2.8445 3.3944 4.4438 5.2145 3.7586 5.6175 5.2833 3.1142
4.2261 5.1071 4.0022 3.4087 2.8324 6.0985 2.7037 2.7145 2.3538 3.8368 3.4192 2.7417 3.2862 11.3251 10.8161 8.5584 2.7994 4.9690 2.8291 2.6342 7.7837 3.0278 3.3321 2.7890 4.1891 5.0873 2.9302 3.8214 3.8542 4.1859 4.2966 4.1630 4.4429 3.1677 3.5173 4.7127 1.7799 3.6550 4.4938 2.9748 2.6771 5.9853 6.2911 7.6496 5.9179 9.3794 3.4493 2.3846 4.0737 2.4152 2.5551 2.7489 3.1957 4.2142 5.0304 3.5328 5.4148 5.4419 3.0190
4.1849 4.6973 4.0133 3.3310 2.7485 5.8474 2.4941 2.6010 2.2666 3.5242 3.1501 2.5863 3.1041 10.6804 10.2074 8.2681 2.4853 4.4500 2.6249 2.5360 7.3312 2.8118 3.0545 2.8191 4.0703 4.7932 2.9530 3.8011 3.8220 4.2338 4.2041 3.9184 4.3887 3.0775 3.3689 4.6360 1.6912 3.4573 4.2812 2.6366 2.5873 5.5134 5.9614 7.2754 5.7025 8.5856 3.0950 2.1794 3.7385 2.2351 2.5178 2.6267 3.0257 4.2025 4.7409 3.4544 5.3198 5.4106 2.8882
3.9770 4.2995 3.8580 3.2530 2.5734 5.0000 2.3006 2.4211 2.0961 3.1624 2.9199 2.3999 2.9100 9.7092 9.5755 7.6014 2.3458 4.3077 2.4797 2.4461 6.2484 2.5863 2.9655 2.6772 3.8222 4.7557 2.8825 3.5932 3.6095 3.9964 4.1089 3.6422 4.1777 2.8540 3.2600 3.8377 1.6092 3.2354 3.9052 2.4606 2.3615 5.0020 5.5017 6.9063 5.3119 8.2919 2.9499 2.0692 3.5996 2.0962 2.2647 2.4683 2.9354 4.1775 4.5639 3.4045 5.2074 4.5119 2.8636
3.6000 3.6356 3.6205 3.2520 2.4625 4.2711 2.1340 2.2846 2.0130 2.9101 2.7999 2.2570 2.7247 9.1938 9.0764 6.9821 2.2357 4.3055 2.3854 2.2024 5.1382 2.3868 2.7579 2.4796 3.3939 4.8202 2.7183 3.6650 3.4844 3.5835 3.9704 3.1813 4.0886 2.6410 3.1651 3.3426 1.4676 2.9941 3.6162 2.2967 2.2479 4.8493 4.9986 6.3478 4.8927 7.7274 2.9339 1.9761 3.3494 1.9879 2.0041 2.3676 2.7286 4.0842 4.2678 3.4987 5.0997 3.8973 2.5896
3.7658 3.4411 3.6524 3.1920 2.3812 3.8628 1.9887 2.1123 1.8814 2.8376 2.7176 2.1090 2.6292 8.7121 8.3312 6.5948 2.0251 3.8880 2.1955 2.0268 4.4474 2.1622 2.6317 2.4285 3.1521 4.7625 2.7660 3.4914 3.4717 3.7424 4.0158 3.0940 4.0560 2.4523 3.0683 3.0759 1.3984 2.7503 3.5286 2.2537 2.1431 4.6296 4.7888 5.9274 4.6579 7.1917 2.6272 1.8615 2.9308 1.8970 1.8164 2.3141 2.6562 4.1081 4.1987 3.3857 4.9463 3.5149 2.6480
3.6694 3.3261 3.7350 3.2411 2.4290 3.7398 1.8984 2.0458 1.7826 2.6387 2.5454 2.0124 2.5305 8.3314 8.0234 6.2773 1.9505 3.6822 2.0567 1.9021 4.0983 2.1679 2.5876 2.5171 3.1093 4.9499 2.6842 3.6230 3.6305 3.6232 4.1076 2.9658 4.1818 2.3961 3.2038 2.7724 1.3399 2.6610 3.2867 2.1002 2.0645 4.4594 4.6023 5.5665 4.3617 6.7801 2.4905 1.7463 2.8410 1.8907 1.6933 2.3431 2.6175 4.0759 4.3170 3.5069 4.8439 3.1103 2.5321
3.7207 3.2758 3.9164 3.2929 2.3790 3.6418 1.8123 1.9888 1.6962 2.4832 2.4078 1.9397 2.5252 7.7399 7.6389 6.0299 1.9566 3.6603 2.0277 1.8210 3.9046 2.0591 2.4999 2.4575 3.0770 5.2332 2.7075 3.7089 3.7858 3.7750 4.1688 2.9156 4.3505 2.2317 3.2844 2.7237 1.3112 2.3831 3.1093 2.0340 2.0116 4.3313 4.3353 5.3036 4.2125 6.5044 2.5319 1.6913 2.6914 1.8210 1.6128 2.4275 2.5192 4.2996 4.4565 3.6119 4.8499 2.9491 2.5719
3.6272 3.3226 4.1062 3.1997 2.3695 3.9225 1.7522 1.9261 1.7050 2.3678 2.3426 1.9200 2.3713 7.5466 7.2523 5.7965 1.8021 3.4936 1.9032 1.7249 3.9611 1.9393 2.4027 2.4180 3.1755 5.2378 2.5764 3.6458 3.7278 3.7309 4.0155 3.1152 4.3234 2.2071 3.5802 2.6773 1.2811 2.3061 3.0724 1.9705 1.9604 4.1451 4.2969 5.1059 4.0852 6.4688 2.3608 1.5870 2.5206 1.7053 1.5917 2.4495 2.4039 4.1822 4.5840 3.5921 4.7696 2.9655 2.5605
3.5021 3.4085 4.0907 3.1766 2.4406 3.9778 1.7837 1.9601 1.6300 2.3571 2.3598 1.8628 2.3160 7.2271 6.9987 5.5419 1.8698 3.3775 1.8924 1.7360 3.9417 1.8552 2.3782 2.5525 3.2924 5.6360 2.7131 3.7002 3.7702 3.6522 4.0310 3.1382 4.3655 2.1831 3.6898 2.6926 1.2821 2.1963 3.0153 1.9615 1.9062 3.8948 4.1262 4.9933 4.0143 6.1935 2.3251 1.6956 2.4681 1.7055 1.6054 2.6093 2.4381 4.5561 4.8141 3.6747 4.8409 2.9025 2.4897
3.5084 3.5786 4.4020 3.2612 2.4644 4.3376 1.8226 2.0078 1.5810 2.3723 2.4821 1.8977 2.2667 7.1754 6.7105 5.3346 1.8125 3.3769 1.8949 1.7101 4.1539 1.8192 2.3896 2.5488 3.5821 5.9843 2.6130 3.5741 3.8108 3.7268 4.0245 3.2702 4.5397 2.1769 4.0387 2.8096 1.2610 2.1442 3.1305 2.0357 1.8897 3.8268 4.2018 4.9305 3.9001 6.0876 2.3683 1.6863 2.4128 1.6798 1.5872 2.7080 2.4398 4.5449 5.2637 3.6349 4.6747 2.9648 2.4615
3.3662 3.7906 4.6065 3.0535 2.5124 4.6733 1.9426 1.9944 1.6444 2.5710 2.6829 2.0247 2.2920 6.8886 6.5186 5.1936 1.9308 3.3996 1.8519 1.8398 4.3548 1.8790 2.2578 2.4343 3.9161 6.2943 2.6090 3.5000 3.7011 3.7368 3.9044 3.4904 4.4885 2.1499 4.3826 2.9464 1.2869 2.2352 3.3551 2.2630 1.9650 3.8140 4.1579 4.8274 3.8855 6.0148 2.3567 1.8342 2.4664 1.6326 1.6760 2.8447 2.2210 4.5732 5.7163 3.6673 4.4689 2.9903 2.4578
3.2755 4.0734 4.8056 2.9431 2.5705 5.2997 2.1250 2.0175 1.6377 2.7544 2.8893 2.1393 2.2416 6.6917 6.1575 5.0759 1.8833 3.2363 1.7937 1.8580 4.7081 1.9075 2.3141 2.5278 4.4736 6.9648 2.5405 3.4696 3.6934 3.7619 3.9134 3.6549 4.4519 2.1457 4.8462 3.3259 1.3018 2.3763 3.5735 2.4478 1.9518 3.8305 4.1985 4.7101 3.8560 5.7216 2.2865 1.8638 2.3748 1.6672 1.8447 3.1925 2.3221 4.6658 6.5232 3.7855 4.2663 3.2347 2.5468
3.2863 4.7991 5.3853 2.8751 2.6851 6.5914 2.5035 2.2470 1.6659 3.0469 3.2679 2.4169 2.3061 6.2967 5.6679 4.8571 2.1036 3.0872 1.8497 2.0343 5.8564 2.0847 2.3354 2.5827 6.0202 7.9858 2.4788 3.4898 3.8380 3.9167 3.9738 4.0545 4.6433 2.3908 5.8393 3.9909 1.4136 2.5149 3.8449 2.8986 2.0080 3.6993 4.3393 4.7695 3.8998 5.5404 2.3006 2.1383 2.5548 1.7279 2.2267 3.7467 2.2555 4.7661 8.2384 4.1199 4.4002 3.7115 2.6649
3.2277 5.5448 5.9028 2.7415 2.9137 7.9723 2.9360 2.5207 1.7641 3.9096 4.3276 3.0905 2.4544 6.7508 5.9134 5.0161 2.4607 3.4293 1.8953 2.4664 6.9433 2.4428 2.4925 2.8061 7.5835 9.0002 2.6036 3.5670 3.8115 4.0279 4.2184 4.5215 4.5778 2.8196 6.7348 5.2113 1.5653 2.8672 4.8032 4.0494 2.1499 3.8931 5.4383 5.9709 4.4002 5.7625 2.5334 2.7401 2.8542 1.9387 2.9149 4.1187 2.3717 4.9781 10.0281 4.3715 4.1593 4.8069 2.8108
3.2153 6.8197 6.4385 2.8242 3.4717 9.7885 3.7184 2.9048 1.9362 5.4066 6.3655 4.2094 2.7250 7.0386 5.9899 5.2825 3.1881 3.7809 1.9200 3.2720 8.7501 3.0531 2.6600 3.0250 10.3063 10.5865 2.6700 3.6245 4.1370 4.2610 4.5080 4.9717 4.8532 3.5863 7.6281 6.8420 1.8759 3.7373 6.4644 6.0846 2.4442 4.0355 6.6699 7.3587 5.1208 6.1805 2.8119 3.9445 3.4511 2.0189 4.0176 5.1632 2.4810 5.0184 13.1264 4.8116 4.2014 6.2693 3.0865
2.9836 7.6761 6.2550 2.7958 3.9996 10.6690 4.4802 3.3665 2.0661 7.4473 9.5809 5.5380 2.8541 7.1025 5.8081 5.4982 4.0970 4.1791 2.0169 4.6846 10.2775 3.9663 2.7991 3.3958 12.1708 10.9406 2.9151 3.7128 3.9517 4.0819 4.6986 5.0433 4.7099 4.5469 7.6130 8.5495 2.1758 4.8690 9.0987 8.8365 2.5962 4.1450 7.8393 8.9264 5.8885 6.3952 3.0562 5.9816 4.3769 2.2904 5.3080 5.5961 2.6412 5.0217 14.8960 4.7500 4.1605 8.4660 3.0865
2.9086 8.1573 6.3276 2.7085 4.4115 10.8813 4.9714 3.5511 2.2237 9.8177 12.6542 6.7250 3.1429 7.0347 5.6827 5.3605 4.7659 4.7101 2.0243 6.4377 10.9294 4.9232 3.0153 3.7015 13.3514 10.9226 2.9551 3.7176 3.7591 4.0886 4.8778 5.2294 4.6941 5.0481 7.4300 9.8685 2.4509 5.9022 12.2938 11.5515 2.8150 4.2311 8.6737 9.8921 5.9592 6.6896 3.2868 7.7713 5.3423 2.3919 6.6781 5.9651 2.7826 4.9108 15.7945 4.6401 4.3285 10.4043 3.0855
2.6444 7.3909 5.7714 2.7321 4.6299 9.8183 5.2852 3.3616 2.4423 11.4398 14.0683 7.3693 3.0944 6.8039 5.4181 5.2988 4.9593 4.9010 2.0486 7.6993 10.1766 5.4385 2.9386 3.7447 12.4504 9.4715 3.0737 3.5713 3.3190 3.6071 4.6641 4.5858 4.6760 5.1814 6.6548 10.1086 2.4561 7.1048 14.3957 12.6959 2.9459 4.2561 8.4830 9.4776 5.7298 6.8252 3.1977 8.6691 6.1279 2.4090 7.1565 5.5333 2.7932 4.5733 14.2331 4.0196 4.2607 11.0881 2.7667
2.3097 6.6381 4.8480 2.6234 4.2486 8.5208 5.1247 3.1516 2.4709 11.5455 13.0165 6.9407 2.9290 6.3691 5.1453 5.2197 4.7387 4.6611 2.1470 8.2302 9.0254 5.7863 2.8264 3.5966 11.1030 8.6062 2.9624 3.3025 2.8959 3.0255 4.0949 4.0430 4.2467 4.7521 5.6902 9.4515 2.3313 7.2590 14.4051 11.8297 2.7706 4.0184 7.5836 8.4068 5.2362 6.6369 3.0288 8.1419 6.6922 2.3802 7.1149 5.2957 2.6703 4.4104 12.6192 3.6264 4.1310 10.3654 2.4585
2.1031 5.0511 4.0552 2.4355 3.8981 6.4280 4.6954 2.6733 2.4957 10.9415 11.6468 6.2086 2.5124 5.6002 4.7329 4.6981 4.1351 3.9467 2.0722 8.0207 7.2248 5.6479 2.4550 3.2002 8.8464 6.7326 2.6309 2.9584 2.4423 2.5948 3.5610 3.1212 3.9184 4.0807 4.5230 8.2144 2.1315 7.1930 13.9356 10.3355 2.5490 3.5051 6.2191 6.7405 4.3548 5.6834 2.6576 7.2476 6.5420 2.1929 6.5916 4.3699 2.3608 3.9680 9.4328 2.9608 3.9764 9.4718 2.0274
1.8041 4.1368 3.3999 2.2561 3.3819 5.1571 4.1782 2.1620 2.3816 9.3091 9.5542 5.2414 2.0917 4.9943 4.3722 4.3684 3.5950 3.4750 1.9986 7.3399 5.8939 5.2781 2.2800 2.8572 7.1014 5.6331 2.4742 2.6831 2.1986 2.2089 3.0192 2.6627 3.5437 3.3227 3.7150 6.7712 1.8789 6.6203 11.9372 8.3371 2.2641 3.0593 5.0000 5.5268 3.8389 5.2829 2.4147 6.1190 6.1453 2.0327 5.8643 3.8055 2.2629 3.6465 7.4953 2.5407 3.7275 7.9803 1.7380
1.6967 3.1719 2.8543 2.0391 2.8167 4.1401 3.6464 1.8957 2.1820 8.0099 7.3230 4.4180 1.9028 4.6452 3.8580 4.0034 2.9106 2.9723 1.8929 6.0294 4.6557 4.6541 2.0552 2.4922 5.3615 4.6446 2.0886 2.3241 1.9193 1.9239 2.5818 2.2109 3.1072 2.7012 3.0508 5.7020 1.6442 5.8454 9.9707 6.5531 2.1254 2.9728 4.2312 4.2850 3.2789 4.8318 2.0885 4.6233 5.3819 1.8521 4.7714 3.1936 1.9634 3.2174 5.5163 2.1703 3.3525 6.5009 1.4350
1.5439 2.5009 2.3236 1.7820 2.2692 3.1689 3.0166 1.6388 1.9855 6.0578 5.4532 3.3813 1.6364 4.1855 3.5198 3.4808 2.3155 2.5542 1.6940 4.8188 3.6609 3.8974 1.7997 2.2552 3.9927 3.8002 1.8958 1.9891 1.6629 1.6272 2.1677 1.7675 2.7101 2.0955 2.3928 4.3274 1.4719 4.8210 7.6841 4.7357 1.8331 2.6756 3.4363 3.4211 2.7506 4.2817 1.8252 3.4901 4.5189 1.6798 3.7603 2.5808 1.8309 2.8927 4.1324 1.8460 3.1129 5.0068 1.1804
1.4610 2.0199 2.0250 1.6245 1.9007 2.5991 2.5938 1.4676 1.8173 4.9619 4.0515 2.8241 1.5099 3.9123 3.1219 3.1244 1.9289 2.2897 1.5759 3.8024 2.9540 3.3523 1.7393 2.0427 3.1225 3.2274 1.7312 1.7970 1.5383 1.5025 1.9628 1.5340 2.3913 1.7543 2.0998 3.5098 1.2789 4.1924 5.9490 3.6566 1.6552 2.5394 2.9701 2.8350 2.4695 3.8378 1.6701 2.6098 3.8389 1.5006 3.0175 2.1873 1.7772 2.6346 3.2096 1.6684 3.0159 3.9146 1.0959
1.3960 1.6947 1.6851 1.5149 1.6327 2.1210 2.2486 1.3508 1.6096 3.8338 3.2019 2.2509 1.3227 3.4065 2.7917 2.7733 1.5977 1.9718 1.4423 3.0581 2.4476 2.8191 1.6532 1.9305 2.4804 2.8511 1.7246 1.6274 1.4154 1.3612 1.7284 1.3108 2.1142 1.5072 1.7766 2.8119 1.1522 3.5179 4.7378 2.7615 1.4447 2.2415 2.4329 2.3276 2.0985 3.3423 1.5012 2.0801 3.2261 1.3959 2.3987 1.9026 1.6806 2.4739 2.5982 1.4887 2.8152 3.1463 0.9685
1.3185 1.4844 1.5042 1.4711 1.4745 1.8657 1.8491 1.2515 1.3889 3.0248 2.4276 1.8281 1.2056 3.3503 2.6616 2.6337 1.3730 1.9186 1.3298 2.4033 2.1033 2.3637 1.5235 1.7324 2.0766 2.5309 1.6123 1.5527 1.3777 1.2492 1.6073 1.1709 2.0349 1.3166 1.6003 2.2866 1.0190 2.8781 3.6643 2.0881 1.2645 2.1556 2.2554 2.1275 2.0128 3.3545 1.4184 1.6196 2.6189 1.2941 1.9828 1.6966 1.5628 2.3460 2.1385 1.4077 2.7660 2.5151 0.8849
1.2591 1.3453 1.3624 1.3681 1.3415 1.6275 1.5900 1.1917 1.2502 2.3851 1.8940 1.5398 1.1200 3.0442 2.4748 2.5088 1.2103 1.6561 1.2203 1.8527 1.8635 2.0129 1.4304 1.6610 1.7881 2.3554 1.5001 1.5207 1.2948 1.1459 1.4780 1.1005 1.8698 1.1783 1.4403 1.8367 0.9780 2.4071 2.8840 1.6798 1.1567 1.9759 1.9675 1.8617 1.8913 3.0338 1.3086 1.2430 2.2444 1.2059 1.5746 1.5398 1.4544 2.2452 1.8617 1.3483 2.5784 2.0672 0.8390
1.1913 1.1897 1.2942 1.3670 1.2803 1.4720 1.3831 1.0962 1.1141 1.9961 1.5261 1.3269 1.0599 2.8345 2.1887 2.2894 1.0775 1.5733 1.1226 1.5026 1.6333 1.7095 1.3561 1.5478 1.5205 2.2268 1.4636 1.4626 1.2688 1.0890 1.3799 1.0179 1.8605 1.0760 1.3126 1.6010 0.8755 2.0328 2.3445 1.3436 1.0915 1.9027 1.8391 1.6809 1.7815 2.8658 1.2451 1.0665 1.8473 1.0940 1.2989 1.3899 1.4756 2.1557 1.6156 1.3240 2.5507 1.7068 0.7940
1.1880 1.0631 1.1935 1.3540 1.1553 1.2748 1.2266 1.0773 1.0038 1.6636 1.2525 1.1620 0.9973 2.6997 2.0513 2.2215 0.9614 1.4603 1.0773 1.2475 1.4384 1.5576 1.2862 1.5217 1.3958 2.1512 1.3901 1.3929 1.2571 1.0798 1.3207 0.9089 1.7946 0.9900 1.1692 1.4513 0.8054 1.7512 1.9209 1.1434 0.9977 1.8487 1.7068 1.5174 1.7045 2.7149 1.1554 0.8483 1.6866 1.0749 1.1153 1.3245 1.4051 2.0514 1.5089 1.2538 2.4877 1.4992 0.7597
1.1984 1.0228 1.1394 1.2739 1.1155 1.2629 1.0872 1.0658 0.9199 1.3914 1.1256 1.0000 0.9368 2.6112 1.9795 2.1168 0.8948 1.4304 0.9967 1.0736 1.3647 1.3298 1.2483 1.4737 1.2551 2.0839 1.3714 1.3510 1.2498 1.0786 1.2795 0.8916 1.7176 0.9342 1.1882 1.2368 0.7749 1.4989 1.6524 0.9812 0.9119 1.7152 1.6270 1.4669 1.6378 2.6867 1.1378 0.7697 1.4542 0.9872 0.9568 1.2328 1.3636 2.0291 1.3797 1.2536 2.3550 1.3058 0.7137
1.1535 0.9602 1.1280 1.2203 1.0662 1.1785 0.9695 1.0303 0.8610 1.1965 0.9763 0.9212 0.9093 2.4795 1.8720 1.9515 0.8643 1.3752 0.9856 0.9302 1.2397 1.2699 1.2083 1.4199 1.1505 2.0692 1.3665 1.2907 1.2006 1.0313 1.2586 0.8439 1.6763 0.9042 1.1377 1.1170 0.7355 1.3198 1.4290 0.8730 0.8815 1.6752 1.5321 1.3419 1.5212 2.5015 1.0970 0.6847 1.3643 1.0013 0.8544 1.1850 1.3078 2.0531 1.3189 1.2356 2.4434 1.1865 0.7069
1.1411 0.9419 1.0156 1.1924 1.0344 1.1198 0.8718 1.0109 0.7755 1.0849 0.9011 0.8529 0.8544 2.3769 1.7730 1.8897 0.7903 1.2672 0.9180 0.8426 1.1990 1.1046 1.1695 1.4217 1.1095 2.0388 1.2800 1.2412 1.1348 0.9756 1.2272 0.8255 1.5333 0.8464 1.0345 1.0126 0.7175 1.1850 1.3350 0.7874 0.8414 1.5910 1.4441 1.2890 1.4692 2.3816 1.0084 0.6335 1.1964 0.9201 0.7711 1.1151 1.2943 1.9474 1.2667 1.2132 2.2861 1.0775 0.6762
1.1352 0.9120 0.9838 1.1906 1.0029 1.0702 0.7930 1.0262 0.7396 0.9500 0.8376 0.8081 0.8467 2.2753 1.7198 1.7879 0.7198 1.2355 0.9218 0.7606 1.1727 1.0340 1.1596 1.4064 1.0422 1.9780 1.2585 1.2438 1.1859 1.0079 1.1668 0.7822 1.5535 0.8004 1.0030 0.9306 0.6712 1.0706 1.1590 0.7398 0.8198 1.5830 1.3977 1.2392 1.3596 2.2807 0.9837 0.5917 1.0752 0.9437 0.7120 1.1014 1.3002 1.9019 1.1810 1.2034 2.2192 1.0102 0.6797
1.0917 0.8873 0.9525 1.1668 1.0472 1.0168 0.7369 0.9887 0.7049 0.8552 0.7727 0.7528 0.7930 2.1578 1.5870 1.6858 0.7090 1.1429 0.8368 0.6997 1.1180 0.9504 1.1056 1.3613 0.9876 1.8702 1.2516 1.2352 1.1460 0.9609 1.1755 0.7770 1.5589 0.7997 0.9615 0.8613 0.6619 0.9868 1.0359 0.6824 0.7578 1.4826 1.3192 1.1463 1.3161 2.0859 0.9310 0.5741 1.0078 0.8654 0.6523 1.0352 1.2470 1.8808 1.1092 1.1528 2.2148 0.9107 0.6623
1.0675 0.8411 0.9575 1.2058 0.9856 0.9957 0.7284 0.9808 0.6811 0.7976 0.7086 0.6960 0.7716 2.0530 1.4420 1.6445 0.6792 1.1196 0.7998 0.6422 1.0382 0.9334 1.1011 1.3809 0.9337 1.9028 1.2813 1.1518 1.1780 0.9368 1.1667 0.7284 1.6065 0.7426 0.9666 0.8421 0.6833 0.9021 0.9912 0.6119 0.7490 1.4648 1.2526 1.0742 1.2950 2.0819 0.9277 0.5114 0.9804 0.8638 0.5944 1.0420 1.2281 1.9305 1.0899 1.1190 2.1971 0.8652 0.6533
1.0380 0.8096 0.9273 1.1029 0.9407 0.9497 0.6807 1.0160 0.6531 0.7319 0.6920 0.6659 0.7798 1.9422 1.4049 1.6119 0.6658 1.1442 0.8081 0.6245 1.0104 0.8669 1.0927 1.3673 0.9173 1.7859 1.2067 1.1376 1.1058 0.9320 1.1208 0.6954 1.4684 0.7669 0.9546 0.7969 0.6471 0.8588 0.9469 0.5793 0.7400 1.4390 1.1837 1.0349 1.2627 2.0481 0.9145 0.5145 0.9428 0.8492 0.5630 0.9916 1.1914 1.8532 1.0577 1.0701 2.1126 0.8469 0.6246
1.0619 0.7865 0.8992 1.0900 0.9161 0.9187 0.6421 0.9664 0.6288 0.7233 0.6573 0.6432 0.7408 1.9063 1.3883 1.5587 0.6709 1.0970 0.7941 0.5835 1.0107 0.8474 1.0426 1.3351 0.9288 1.8215 1.2116 1.1533 1.0877 0.9321 1.1174 0.6837 1.4327 0.7224 0.8865 0.7668 0.6257 0.8323 0.9105 0.5573 0.7065 1.3377 1.1433 0.9974 1.2279 1.9974 0.9194 0.4898 0.9118 0.8183 0.5446 1.0030 1.1761 1.8473 1.0585 1.1219 2.1263 0.8316 0.6202
1.0495 0.7942 0.9138 1.1095 0.9470 0.9040 0.6222 0.9805 0.6030 0.6902 0.6388 0.6318 0.7310 1.8400 1.3601 1.5475 0.6410 1.0824 0.7673 0.5651 0.9772 0.8234 1.0198 1.2683 0.8996 1.7648 1.1728 1.1263 1.1178 0.9073 1.0891 0.6759 1.5091 0.6923 0.8910 0.7336 0.6127 0.7960 0.8799 0.5487 0.7004 1.3098 1.1308 0.9784 1.2151 1.9357 0.8742 0.4787 0.8583 0.8118 0.5363 0.9508 1.1555 1.7693 1.0369 1.1046 2.0308 0.7920 0.5955
1.0173 0.7707 0.8778 1.0894 0.9181 0.8803 0.6090 1.0221 0.6038 0.6960 0.6414 0.6231 0.6967 1.7681 1.2481 1.4253 0.6066 1.0389 0.7451 0.5556 0.9565 0.8041 1.0045 1.3387 0.8753 1.7171 1.2021 1.1162 1.0929 0.8978 1.0787 0.6775 1.4664 0.7076 0.8535 0.7282 0.6131 0.7878 0.8673 0.5391 0.6898 1.2855 1.0948 0.9332 1.1465 1.8415 0.8328 0.4631 0.8311 0.8446 0.5304 0.9676 1.1303 1.7994 0.9935 1.0522 2.0698 0.7817 0.6025
1.0453 0.7626 0.8900 1.1144 0.9451 0.8779 0.5940 0.9977 0.5912 0.6580 0.6023 0.6027 0.7098 1.7265 1.2378 1.4467 0.6006 0.9819 0.7626 0.5235 0.9169 0.8160 1.0041 1.2733 0.8554 1.5866 1.1720 1.0922 1.0820 0.9153 1.0707 0.6517 1.4934 0.6962 0.8648 0.7168 0.6113 0.7599 0.8254 0.5305 0.6817 1.2835 1.0638 0.9082 1.1352 1.7619 0.8163 0.4447 0.8078 0.8403 0.5213 0.9606 1.1275 1.7178 0.9713 0.9890 2.0329 0.7567 0.5784
1.0139 0.7081 0.8660 1.0737 0.8739 0.8349 0.5721 0.9983 0.5808 0.6317 0.5685 0.5753 0.6956 1.6709 1.1798 1.3817 0.5878 0.9486 0.6946 0.5210 0.9088 0.7642 0.9611 1.2036 0.8365 1.4979 1.1704 1.0918 1.0840 0.8954 1.0544 0.6498 1.4231 0.6749 0.8326 0.6660 0.5883 0.7232 0.7970 0.4779 0.6862 1.2556 1.0334 0.8908 1.1184 1.7323 0.7991 0.4421 0.7726 0.7792 0.5060 0.9193 1.1008 1.6782 0.8911 0.9744 1.9901 0.7331 0.5694
0.9993 0.6807 0.8426 1.0670 0.9052 0.8181 0.5726 1.0747 0.5460 0.6070 0.5464 0.5534 0.6724 1.6171 1.1422 1.3168 0.5664 0.9287 0.7082 0.5015 0.8774 0.7449 0.9322 1.2164 0.8386 1.3670 1.1611 1.0898 1.0029 0.8551 1.0767 0.6091 1.4076 0.6750 0.8101 0.6703 0.5811 0.7030 0.7647 0.4683 0.6617 1.1951 0.9891 0.8310 1.0490 1.6709 0.7828 0.4068 0.7835 0.7807 0.4963 0.9268 1.0662 1.5902 0.8670 0.9178 1.9475 0.7171 0.5427
1.0089 0.6843 0.8191 1.0822 0.8971 0.7886 0.5599 1.0783 0.5501 0.5938 0.5515 0.5484 0.6579 1.5459 1.0625 1.2807 0.5635 0.9134 0.6976 0.4955 0.8527 0.7402 0.9565 1.2279 0.7958 1.3476 1.1951 1.0968 1.0625 0.8113 1.0326 0.5777 1.4417 0.6799 0.8007 0.6344 0.5966 0.7062 0.7296 0.4749 0.6476 1.1750 0.9665 0.8411 1.0487 1.6226 0.7645 0.4237 0.7477 0.7895 0.4583 0.8775 1.1050 1.6819 0.8537 0.8993 1.9971 0.6710 0.5210
0.9721 0.6866 0.7962 1.0678 0.8633 0.7794 0.5727 1.0924 0.5197 0.5817 0.5221 0.5132 0.6446 1.4578 1.0035 1.2055 0.5413 0.8768 0.6978 0.4726 0.8317 0.7097 0.9281 1.2260 0.7671 1.3013 1.1500 1.0661 1.0147 0.7768 1.0369 0.5840 1.3864 0.6549 0.7986 0.6329 0.5896 0.6635 0.7133 0.4456 0.6237 1.1249 0.9038 0.7782 0.9793 1.5215 0.7402 0.3868 0.7491 0.7576 0.4553 0.8597 1.0618 1.5694 0.8379 0.8635 1.9039 0.6551 0.5353
0.9473 0.6523 0.7878 1.0542 0.8531 0.7825 0.5556 1.1284 0.5395 0.5701 0.5217 0.5167 0.6220 1.4552 0.9865 1.1973 0.5197 0.8537 0.6654 0.4600 0.8192 0.6890 0.8972 1.1406 0.7380 1.2499 1.1595 1.0109 0.9876 0.7734 0.9961 0.5589 1.3576 0.6613 0.7832 0.6118 0.6132 0.6714 0.7151 0.4471 0.6098 1.0967 0.9170 0.7490 0.9884 1.5022 0.7096 0.3792 0.7094 0.7153 0.4436 0.8490 1.0424 1.5392 0.8025 0.8490 1.9490 0.6480 0.5192
0.9900 0.6302 0.7783 1.0866 0.8825 0.7595 0.5253 1.0594 0.5110 0.5628 0.5057 0.4927 0.6309 1.4061 0.9924 1.1637 0.4804 0.8055 0.6639 0.4503 0.7893 0.6732 0.9329 1.1485 0.7260 1.2139 1.1882 1.0150 1.0596 0.7788 1.0014 0.5444 1.4185 0.6595 0.7462 0.6216 0.5705 0.6447 0.7020 0.4241 0.6081 1.0897 0.8901 0.7517 0.9222 1.4152 0.6682 0.3669 0.6831 0.7415 0.4285 0.8536 1.0444 1.5421 0.7823 0.8186 1.9454 0.6486 0.4828
0.9539 0.6322 0.7979 1.0638 0.8686 0.7264 0.5049 1.0984 0.5184 0.5304 0.4909 0.4896 0.6023 1.3673 0.9379 1.0900 0.4928 0.7693 0.6306 0.4366 0.7681 0.6495 0.8861 1.1561 0.7339 1.1079 1.1769 1.0545 1.0509 0.7928 0.9543 0.5277 1.4316 0.6466 0.7321 0.5983 0.5842 0.6416 0.6801 0.4089 0.5904 1.0468 0.8407 0.7109 0.9020 1.3415 0.6625 0.3628 0.6660 0.7180 0.4079 0.8282 1.0064 1.4839 0.7764 0.8002 1.8452 0.6188 0.4914
0.9487 0.6028 0.7490 1.0546 0.8181 0.7026 0.5088 1.0867 0.4888 0.5179 0.4842 0.4840 0.5728 1.3105 0.8940 1.1329 0.4826 0.7963 0.6277 0.4358 0.7489 0.6370 0.8912 1.1909 0.7184 1.1164 1.1711 1.0475 0.9955 0.7508 0.9762 0.5178 1.3272 0.6275 0.7247 0.5663 0.5500 0.6056 0.6451 0.4145 0.5777 1.0099 0.8301 0.7116 0.9427 1.4147 0.6740 0.3566 0.6552 0.7068 0.4025 0.8435 1.0625 1.5039 0.7390 0.8205 1.9559 0.5885 0.4922
0.9678 0.6128 0.7655 1.0678 0.8089 0.7050 0.4971 1.0643 0.4942 0.4763 0.4611 0.4815 0.6068 1.2845 0.8639 1.0473 0.4703 0.7567 0.6022 0.4176 0.7287 0.6215 0.9119 1.1908 0.6878 1.0836 1.2050 1.0397 1.0439 0.7654 0.9711 0.5243 1.3834 0.6207 0.6979 0.5552 0.5640 0.5984 0.6199 0.4035 0.6032 1.0471 0.8154 0.6841 0.8673 1.3001 0.6460 0.3421 0.6450 0.7066 0.4054 0.8142 1.0178 1.4995 0.7208 0.8084 1.9182 0.5773 0.4926
0.9290 0.5817 0.7252 1.0547 0.8105 0.6937 0.5024 1.0537 0.4934 0.4963 0.4633 0.4728 0.5637 1.2202 0.8420 1.0154 0.4528 0.7033 0.5951 0.3989 0.7092 0.6148 0.8980 1.2495 0.6718 1.0434 1.1757 0.9944 1.0223 0.7240 0.9426 0.5125 1.3231 0.6211 0.7041 0.5564 0.5322 0.6133 0.6103 0.3993 0.5774 0.9551 0.7940 0.6847 0.8422 1.2550 0.6206 0.3365 0.6309 0.7022 0.3944 0.8037 1.0110 1.5272 0.6760 0.7439 1.8754 0.5686 0.4594
0.9509 0.6001 0.7228 1.0949 0.8719 0.6543 0.4941 1.1044 0.4751 0.5033 0.4530 0.4515 0.5849 1.2375 0.8045 0.9970 0.4545 0.7324 0.5957 0.4123 0.7063 0.6049 0.9134 1.1570 0.6840 1.0671 1.2381 1.0432 1.0564 0.7261 0.9450 0.4936 1.4028 0.6241 0.6849 0.5534 0.5607 0.5894 0.6179 0.3804 0.5702 0.9930 0.7799 0.6429 0.8429 1.2612 0.6279 0.3354 0.6394 0.6821 0.3822 0.8191 1.0113 1.4820 0.7187 0.8010 1.8771 0.5505 0.4654
0.9516 0.5718 0.7212 1.0529 0.8520 0.6559 0.4969 1.0729 0.4595 0.4989 0.4401 0.4390 0.5858 1.1782 0.8068 0.9870 0.4483 0.6818 0.6068 0.3870 0.7026 0.6181 0.8920 1.1739 0.6587 1.0482 1.2621 1.0667 1.0256 0.7248 0.9304 0.4816 1.3769 0.6099 0.6938 0.5314 0.5333 0.5760 0.5883 0.3825 0.5781 0.9894 0.7295 0.6177 0.8121 1.1703 0.6122 0.3183 0.6329 0.6937 0.3795 0.7941 1.0359 1.5309 0.6929 0.7700 1.9367 0.5446 0.4452
0.9822 0.5628 0.6950 1.0040 0.7961 0.6450 0.4713 1.0663 0.4691 0.4831 0.4309 0.4266 0.5685 1.1408 0.7844 0.9379 0.4333 0.6743 0.5969 0.3873 0.6736 0.5964 0.9223 1.2374 0.6201 1.0530 1.2912 1.0724 1.0076 0.7290 0.9497 0.4697 1.3033 0.6179 0.6573 0.5196 0.5156 0.5634 0.5881 0.3658 0.5681 0.9431 0.7267 0.6178 0.7819 1.1165 0.5944 0.3190 0.5888 0.7246 0.3649 0.8062 1.0216 1.6037 0.6573 0.7909 1.9439 0.5226 0.4541
0.9451 0.5381 0.6709 0.9574 0.7802 0.6044 0.4657 1.0144 0.4560 0.4751 0.4144 0.4299 0.5322 1.0725 0.7497 0.9426 0.4192 0.6513 0.5364 0.3682 0.6586 0.5789 0.8876 1.1895 0.6323 0.9785 1.3095 1.1151 0.9624 0.7071 0.9175 0.4585 1.2386 0.6062 0.6303 0.5032 0.5250 0.5638 0.5799 0.3627 0.5366 0.8632 0.6835 0.6097 0.8021 1.1427 0.5679 0.3086 0.5636 0.6884 0.3641 0.7893 1.0020 1.5260 0.6378 0.8079 1.9670 0.5334 0.4347
0.9420 0.5119 0.6504 0.9573 0.7355 0.6132 0.4680 1.0331 0.4359 0.4487 0.4063 0.4128 0.5415 1.0442 0.7266 0.9041 0.4136 0.6635 0.5685 0.3770 0.6369 0.5560 0.9092 1.2001 0.6019 1.0360 1.3293 1.1012 0.9506 0.7073 0.9448 0.4411 1.1861 0.6087 0.6193 0.5070 0.5047 0.5275 0.5712 0.3478 0.5383 0.8840 0.6883 0.5834 0.7496 1.0898 0.5720 0.3130 0.5486 0.7062 0.3497 0.7759 0.9952 1.6438 0.6264 0.7941 1.9481 0.5201 0.4266
0.9402 0.5298 0.6547 0.9921 0.7432 0.5730 0.4419 0.9622 0.4232 0.4265 0.3917 0.4012 0.5133 1.0361 0.7161 0.9175 0.4077 0.6307 0.5515 0.3615 0.6322 0.5859 0.8908 1.2514 0.6141 0.9669 1.3732 1.0917 0.9729 0.6903 0.9409 0.4597 1.2307 0.6091 0.5919 0.4693 0.4814 0.5209 0.5328 0.3352 0.5055 0.8312 0.6603 0.5709 0.7599 1.0842 0.5526 0.3026 0.5454 0.7234 0.3485 0.7698 1.0300 1.6069 0.6231 0.7627 1.9022 0.4910 0.4202
0.9634 0.5067 0.6299 0.9744 0.7393 0.5747 0.4259 0.9999 0.4158 0.4055 0.3920 0.3788 0.5104 1.0066 0.6932 0.8700 0.3889 0.6501 0.5632 0.3567 0.6065 0.5712 0.8908 1.2530 0.5949 1.0184 1.3344 1.1436 1.0069 0.6851 0.9377 0.4248 1.2591 0.5999 0.5734 0.4723 0.4961 0.4775 0.5411 0.3264 0.5053 0.8222 0.6532 0.5586 0.7353 1.0581 0.5509 0.2892 0.5414 0.6850 0.3298 0.8121 1.0351 1.6724 0.5955 0.8083 1.9589 0.4985 0.4167
0.9528 0.5133 0.6824 0.9456 0.7849 0.5637 0.4282 0.9818 0.4127 0.4133 0.3771 0.3702 0.4941 0.9526 0.6537 0.8574 0.3705 0.6137 0.5452 0.3432 0.5931 0.5610 0.8797 1.1993 0.5772 0.9701 1.3477 1.0864 1.0152 0.7147 0.9187 0.4251 1.3247 0.6003 0.6134 0.4635 0.5109 0.4777 0.5242 0.3213 0.4878 0.7828 0.6198 0.5408 0.7287 1.0448 0.5344 0.2744 0.5218 0.6819 0.3206 0.7685 0.9897 1.6304 0.5817 0.7569 1.8426 0.4668 0.4228
0.9362 0.4762 0.6449 0.9563 0.7744 0.5391 0.4047 0.9836 0.3936 0.3965 0.3803 0.3579 0.4949 0.9634 0.6674 0.8396 0.3544 0.5979 0.5397 0.3362 0.5712 0.5444 0.8661 1.1879 0.5458 0.9197 1.3430 1.1224 0.9905 0.6915 0.9399 0.4112 1.2803 0.6043 0.5829 0.4316 0.5035 0.4571 0.5230 0.3086 0.4789 0.7886 0.6125 0.5408 0.7008 0.9806 0.5031 0.2782 0.5057 0.6787 0.3133 0.7750 0.9543 1.5709 0.5397 0.7709 1.9047 0.4687 0.4015
0.9498 0.4732 0.6336 0.9478 0.7957 0.5274 0.4154 0.8977 0.3966 0.3857 0.3650 0.3459 0.4789 0.9361 0.6139 0.7793 0.3533 0.5725 0.5024 0.3231 0.5419 0.5211 0.8787 1.1206 0.5388 0.9007 1.3561 1.1326 1.0380 0.6950 0.9026 0.4141 1.3265 0.5958 0.5659 0.4287 0.4920 0.4429 0.4850 0.3076 0.4552 0.7535 0.5929 0.5219 0.6800 0.9346 0.4978 0.2699 0.4805 0.6318 0.3111 0.7550 0.9489 1.4913 0.5518 0.7633 1.8496 0.4353 0.3947
0.9289 0.4665 0.6133 0.9366 0.7486 0.4968 0.4007 0.8764 0.3848 0.3770 0.3494 0.3396 0.4594 0.8975 0.5933 0.7822 0.3448 0.5735 0.5139 0.3112 0.5552 0.5386 0.8381 1.1676 0.5479 0.8715 1.3194 1.1679 0.9909 0.6712 0.9046 0.3885 1.2675 0.6110 0.5300 0.4198 0.4714 0.4451 0.4888 0.2922 0.4421 0.7428 0.5882 0.4969 0.6810 0.9483 0.4917 0.2593 0.4860 0.6400 0.3130 0.7119 0.9774 1.5058 0.5327 0.7501 1.8719 0.4450 0.4040
0.9355 0.4449 0.5912 0.9183 0.7201 0.4904 0.4073 0.8696 0.3724 0.3758 0.3400 0.3288 0.4668 0.8857 0.6000 0.7505 0.3451 0.5720 0.5110 0.3155 0.5195 0.5405 0.8225 1.1910 0.5046 0.8941 1.2427 1.1751 0.9658 0.6691 0.8716 0.3781 1.2141 0.6010 0.5303 0.4225 0.4653 0.4143 0.4781 0.2843 0.4401 0.7382 0.5832 0.4905 0.6419 0.9054 0.5005 0.2584 0.4832 0.6584 0.2975 0.7471 0.9655 1.4674 0.5163 0.7730 1.8555 0.4235 0.3932
0.8995 0.4384 0.5816 0.9253 0.7258 0.4887 0.3897 0.8662 0.3696 0.3616 0.3437 0.3242 0.4538 0.8476 0.5858 0.7570 0.3244 0.5750 0.4965 0.3094 0.5211 0.5209 0.8033 1.1640 0.5138 0.8296 1.2680 1.1819 0.9794 0.6590 0.8429 0.3727 1.2133 0.6066 0.5187 0.4098 0.4483 0.4036 0.4668 0.2756 0.4423 0.7000 0.5514 0.4810 0.6378 0.9278 0.4867 0.2532 0.4644 0.6486 0.2885 0.7163 0.9235 1.4557 0.5129 0.7532 1.8292 0.4164 0.3920
0.8991 0.4249 0.5590 0.9258 0.7130 0.4550 0.3625 0.8389 0.3575 0.3469 0.3273 0.3241 0.4348 0.8335 0.5880 0.7461 0.3297 0.5517 0.5052 0.2961 0.4921 0.5256 0.7805 1.0841 0.5167 0.8486 1.2243 1.1449 0.9351 0.6354 0.8701 0.3672 1.1963 0.5932 0.4795 0.3828 0.4582 0.3931 0.4747 0.2705 0.4226 0.6948 0.5488 0.4766 0.6204 0.8558 0.4732 0.2448 0.4505 0.6550 0.2935 0.7175 0.9345 1.3542 0.5072 0.7463 1.7622 0.4167 0.3777
0.9625 0.4202 0.5727 0.8670 0.7409 0.4508 0.3799 0.7779 0.3403 0.3408 0.3237 0.3047 0.4206 0.7928 0.5420 0.6971 0.3289 0.5560 0.4915 0.2924 0.4877 0.4871 0.7749 1.1706 0.4806 0.8240 1.1171 1.2170 1.0115 0.6512 0.9015 0.3571 1.2168 0.6044 0.5001 0.3930 0.4607 0.3782 0.4605 0.2680 0.3947 0.6450 0.5240 0.4601 0.6041 0.8538 0.4613 0.2393 0.4463 0.6955 0.2776 0.7077 0.9273 1.3023 0.4811 0.7880 1.7831 0.4017 0.3840
0.8944 0.4117 0.5723 0.9296 0.7378 0.4454 0.3523 0.7741 0.3409 0.3413 0.3153 0.2982 0.4171 0.7738 0.5456 0.6844 0.3094 0.5451 0.4959 0.2863 0.4772 0.4810 0.7450 1.1059 0.4676 0.7723 1.1287 1.1662 1.0367 0.6361 0.8424 0.3488 1.2779 0.5921 0.4669 0.3858 0.4302 0.3792 0.4479 0.2605 0.3849 0.6299 0.5020 0.4597 0.5917 0.8315 0.4626 0.2336 0.4328 0.6380 0.2803 0.6886 0.8864 1.2697 0.4688 0.7235 1.7397 0.4074 0.3688
0.8943 0.3992 0.5605 0.8877 0.6770 0.4378 0.3492 0.7666 0.3473 0.3311 0.3082 0.2915 0.4118 0.7750 0.5190 0.6807 0.3086 0.5254 0.4780 0.2762 0.4683 0.4840 0.7591 1.0602 0.4756 0.7764 1.1113 1.1178 0.9946 0.6405 0.8305 0.3491 1.1993 0.6191 0.4560 0.3640 0.4247 0.3772 0.4287 0.2535 0.3762 0.6246 0.4999 0.4424 0.5871 0.8296 0.4597 0.2266 0.4250 0.5832 0.2696 0.6758 0.9091 1.2849 0.4706 0.7069 1.7155 0.3812 0.3588
0.9392 0.3807 0.5314 0.8419 0.7145 0.4124 0.3428 0.7459 0.3339 0.3135 0.2940 0.2827 0.3954 0.7576 0.5188 0.6629 0.3017 0.5053 0.4651 0.2814 0.4524 0.4927 0.7395 1.0780 0.4569 0.7972 1.0994 1.1990 0.9924 0.6398 0.8191 0.3294 1.1620 0.6001 0.4517 0.3580 0.4397 0.3609 0.4005 0.2473 0.3629 0.6009 0.4993 0.4329 0.5765 0.7986 0.4288 0.2244 0.4134 0.6163 0.2651 0.6763 0.9329 1.3058 0.4391 0.7392 1.7058 0.3687 0.3571
0.9038 0.3737 0.5462 0.8727 0.7049 0.4070 0.3284 0.7242 0.3301 0.3018 0.2952 0.2802 0.3973 0.7513 0.5067 0.6475 0.2910 0.5179 0.4714 0.2664 0.4355 0.4969 0.7260 1.0758 0.4472 0.7713 1.0748 1.1821 0.9784 0.6165 0.8328 0.3331 1.1768 0.5839 0.4576 0.3350 0.4313 0.3498 0.3990 0.2460 0.3628 0.6148 0.4844 0.4099 0.5614 0.7909 0.4340 0.2176 0.3946 0.6159 0.2575 0.6828 0.9143 1.2405 0.4404 0.7551 1.7521 0.3550 0.3493
0.9082 0.3692 0.5260 0.8108 0.6553 0.4001 0.3232 0.7003 0.3401 0.2959 0.2924 0.2728 0.3726 0.7082 0.4928 0.6551 0.2924 0.4916 0.4731 0.2772 0.4290 0.4820 0.7348 1.1222 0.4439 0.7477 1.0187 1.1728 0.9502 0.6292 0.8078 0.3223 1.1150 0.5530 0.4285 0.3461 0.4276 0.3437 0.4124 0.2387 0.3536 0.5615 0.4616 0.4150 0.5561 0.7919 0.4291 0.2140 0.4209 0.6667 0.2565 0.6620 0.9032 1.1906 0.4324 0.7280 1.7246 0.3637 0.3528
0.9304 0.3561 0.5322 0.7961 0.6862 0.3945 0.3414 0.6526 0.3219 0.2934 0.2943 0.2663 0.3809 0.7090 0.4757 0.6173 0.2752 0.5020 0.4675 0.2609 0.4197 0.4521 0.7162 1.0947 0.4330 0.7610 0.9671 1.1750 0.9442 0.6312 0.7908 0.3173 1.1103 0.5339 0.4544 0.3343 0.4359 0.3336 0.4038 0.2402 0.3538 0.5880 0.4763 0.4149 0.5423 0.7419 0.4143 0.2164 0.3789 0.6383 0.2411 0.6458 0.8921 1.1951 0.4271 0.7299 1.6831 0.3467 0.3337
0.8928 0.3509 0.5130 0.7881 0.6822 0.3804 0.3382 0.6767 0.3069 0.2877 0.2803 0.2567 0.3769 0.6901 0.4675 0.6343 0.2759 0.5190 0.4916 0.2516 0.4083 0.4873 0.6974 1.0487 0.4161 0.7298 0.9279 1.1462 0.9132 0.5996 0.7867 0.3139 1.0930 0.5374 0.4509 0.3237 0.4171 0.3219 0.3727 0.2294 0.3453 0.5693 0.4521 0.3962 0.5455 0.7608 0.4233 0.2099 0.3871 0.6546 0.2413 0.6324 0.9157 1.1448 0.4111 0.7077 1.6188 0.3295 0.3374
0.9148 0.3614 0.5296 0.8433 0.7238 0.3715 0.3137 0.6460 0.3018 0.2743 0.2844 0.2543 0.3596 0.6918 0.4697 0.6036 0.2771 0.4989 0.4690 0.2528 0.4072 0.4460 0.6855 1.0903 0.4238 0.7694 0.9517 1.1920 0.9770 0.5969 0.7832 0.3095 1.2306 0.5074 0.4494 0.3111 0.4120 0.3150 0.3655 0.2259 0.3305 0.5626 0.4444 0.3950 0.5238 0.7370 0.4141 0.2154 0.3700 0.6449 0.2407 0.6738 0.8771 1.2015 0.4218 0.7524 1.6859 0.3210 0.3344
0.9116 0.3398 0.5143 0.7458 0.6925 0.3701 0.3162 0.6338 0.3018 0.2757 0.2700 0.2418 0.3729 0.6747 0.4435 0.5749 0.2643 0.4686 0.4602 0.2439 0.3935 0.4548 0.6824 1.0164 0.4059 0.7556 0.8995 1.2118 0.9432 0.6049 0.7443 0.2987 1.1117 0.5241 0.4491 0.2995 0.4126 0.3086 0.3593 0.2249 0.3286 0.5419 0.4442 0.3769 0.4996 0.7014 0.3898 0.1976 0.3723 0.6454 0.2322 0.6404 0.8520 1.1096 0.4090 0.7494 1.6295 0.3132 0.3231
0.9032 0.3343 0.4854 0.7767 0.6378 0.3707 0.3057 0.6271 0.3002 0.2589 0.2783 0.2422 0.3465 0.6367 0.4436 0.5931 0.2639 0.4608 0.4355 0.2419 0.3883 0.4574 0.6804 1.0073 0.4006 0.7671 0.9018 1.1540 0.9031 0.5834 0.7505 0.2933 1.0698 0.4886 0.4263 0.3056 0.3984 0.2985 0.3430 0.2197 0.3217 0.5112 0.4265 0.3880 0.5132 0.7053 0.3909 0.2110 0.3626 0.5986 0.2277 0.6279 0.8311 1.1163 0.4024 0.7555 1.5681 0.3133 0.3185
0.9229 0.3475 0.5173 0.7266 0.6830 0.3543 0.2959 0.6033 0.2971 0.2487 0.2697 0.2389 0.3605 0.6396 0.4277 0.5716 0.2649 0.4598 0.4385 0.2322 0.3839 0.4734 0.6810 1.0241 0.3942 0.7452 0.8708 1.1958 0.9053 0.6078 0.7529 0.3053 1.0959 0.4723 0.4352 0.2726 0.4246 0.2921 0.3391 0.2148 0.3206 0.5347 0.4208 0.3757 0.5116 0.6859 0.3886 0.2052 0.3634 0.6086 0.2223 0.6681 0.8432 1.1198 0.4010 0.7530 1.6372 0.2952 0.3149
0.8649 0.3343 0.4887 0.7435 0.6093 0.3531 0.2867 0.5822 0.2835 0.2489 0.2571 0.2376 0.3325 0.6075 0.4117 0.5636 0.2533 0.4701 0.4349 0.2276 0.3701 0.4436 0.6253 0.9936 0.3932 0.7354 0.8522 1.1029 0.8268 0.5781 0.7158 0.3029 1.0076 0.4530 0.4125 0.2717 0.3836 0.2900 0.3338 0.2118 0.3069 0.4995 0.4124 0.3606 0.4964 0.6819 0.3891 0.1925 0.3492 0.5702 0.2214 0.6245 0.8060 1.0907 0.4028 0.7178 1.5401 0.2842 0.3148
0.9251 0.3330 0.4784 0.7761 0.6856 0.3649 0.3070 0.5921 0.2957 0.2489 0.2672 0.2415 0.3482 0.5967 0.4126 0.5545 0.2541 0.4490 0.4509 0.2315 0.3637 0.4576 0.6403 0.9640 0.3910 0.7608 0.8579 1.1607 0.9222 0.5939 0.7271 0.2936 1.0902 0.4624 0.4380 0.2920 0.4245 0.2906 0.3312 0.2165 0.3184 0.5010 0.4099 0.3610 0.4902 0.6577 0.3753 0.1988 0.3513 0.5823 0.2182 0.6560 0.8397 1.0867 0.4052 0.7545 1.5857 0.2925 0.3193
0.9704 0.3409 0.4778 0.7548 0.6602 0.3318 0.2812 0.5868 0.2942 0.2370 0.2579 0.2288 0.3315 0.6110 0.4110 0.5610 0.2492 0.4492 0.4356 0.2267 0.3628 0.4372 0.6278 0.9932 0.3898 0.7394 0.8402 1.1726 0.9219 0.5855 0.7322 0.2883 1.0566 0.4434 0.4119 0.2702 0.4261 0.2720 0.3205 0.2006 0.3072 0.4975 0.4086 0.3616 0.4842 0.6710 0.3688 0.1930 0.3525 0.5766 0.2082 0.6250 0.8164 1.0472 0.4113 0.7331 1.5430 0.2758 0.3143
0.9421 0.3115 0.4717 0.7234 0.6647 0.3450 0.2897 0.5734 0.2882 0.2455 0.2551 0.2305 0.3232 0.5884 0.4008 0.5438 0.2413 0.4387 0.4338 0.2171 0.3559 0.4298 0.6066 1.0408 0.3761 0.7296 0.8244 1.1681 0.8627 0.5827 0.7117 0.2829 1.0482 0.4313 0.4206 0.2854 0.3992 0.2870 0.3161 0.2065 0.3050 0.4827 0.3960 0.3548 0.4769 0.6520 0.3598 0.1885 0.3304 0.6193 0.2043 0.6309 0.8117 1.0444 0.3897 0.7488 1.5306 0.2800 0.2986
0.9468 0.3244 0.5139 0.7678 0.7816 0.3488 0.2936 0.5723 0.2841 0.2445 0.2629 0.2272 0.3331 0.5809 0.3960 0.5459 0.2397 0.4405 0.4373 0.2158 0.3610 0.4247 0.6102 0.9886 0.3738 0.7320 0.8351 1.1452 0.8791 0.5861 0.7115 0.2771 1.2099 0.4416 0.4350 0.2755 0.4421 0.2799 0.3228 0.2099 0.2948 0.4736 0.3894 0.3528 0.4668 0.6407 0.3686 0.1919 0.3338 0.5926 0.1989 0.6037 0.7886 1.0348 0.3944 0.7451 1.5325 0.2742 0.2989
0.9477 0.3200 0.4948 0.7257 0.7221 0.3415 0.2879 0.5505 0.2753 0.2366 0.2678 0.2221 0.3162 0.5523 0.3823 0.5203 0.2328 0.4388 0.4239 0.2151 0.3409 0.4048 0.6237 1.0052 0.3824 0.7567 0.8026 1.1717 0.9165 0.5952 0.6979 0.2782 1.1348 0.4161 0.4301 0.2700 0.4369 0.2634 0.3199 0.2100 0.2873 0.4510 0.3749 0.3542 0.4638 0.6371 0.3502 0.1917 0.3352 0.5998 0.1966 0.6176 0.7713 1.0571 0.4145 0.7572 1.5492 0.2579 0.2931
0.9534 0.3184 0.5062 0.7004 0.6746 0.3371 0.2816 0.5465 0.2804 0.2384 0.2744 0.2180 0.3211 0.5691 0.3818 0.5136 0.2264 0.4374 0.4452 0.2149 0.3473 0.4459 0.5901 0.9493 0.3859 0.7316 0.8246 1.1644 0.8832 0.5831 0.6897 0.2722 1.1069 0.4149 0.4312 0.2701 0.4124 0.2609 0.3145 0.2153 0.2872 0.4717 0.3848 0.3567 0.4524 0.6235 0.3512 0.1967 0.3164 0.6186 0.1943 0.6227 0.8086 1.0223 0.3983 0.7348 1.5086 0.2641 0.2906
0.9258 0.3209 0.5000 0.7059 0.6695 0.3311 0.2778 0.5176 0.2718 0.2393 0.2828 0.2238 0.3185 0.5787 0.3838 0.5057 0.2321 0.4252 0.4336 0.2185 0.3415 0.4129 0.5968 1.0293 0.3940 0.7624 0.7788 1.1318 0.9151 0.5947 0.6787 0.2747 1.0854 0.4081 0.4256 0.2673 0.4040 0.2649 0.3188 0.2231 0.2835 0.4748 0.3870 0.3526 0.4516 0.6007 0.3499 0.2018 0.3218 0.6070 0.1975 0.6253 0.7553 1.0748 0.4128 0.7358 1.4613 0.2627 0.2954
0.9440 0.3223 0.4630 0.6985 0.6320 0.3355 0.2705 0.5426 0.2787 0.2444 0.2934 0.2240 0.3181 0.5562 0.3759 0.4898 0.2366 0.4225 0.4345 0.2144 0.3490 0.4392 0.5873 1.0012 0.3954 0.7694 0.8030 1.1513 0.8868 0.5850 0.6793 0.2681 1.0334 0.3974 0.4187 0.2701 0.4022 0.2605 0.3186 0.2334 0.2920 0.4639 0.3810 0.3614 0.4378 0.5811 0.3496 0.2096 0.3293 0.5910 0.1952 0.6399 0.8011 1.0966 0.4118 0.7506 1.4916 0.2606 0.2924
0.9303 0.3180 0.4451 0.6847 0.6052 0.3270 0.2792 0.5097 0.2741 0.2541 0.3129 0.2195 0.3078 0.5307 0.3646 0.4864 0.2261 0.4069 0.4092 0.2210 0.3407 0.4077 0.5997 0.9686 0.4017 0.7357 0.7769 1.0956 0.8708 0.5886 0.6663 0.2638 0.9775 0.3933 0.3937 0.2708 0.3941 0.2555 0.3369 0.2430 0.2857 0.4423 0.3578 0.3509 0.4206 0.5752 0.3349 0.2109 0.3328 0.5822 0.1950 0.5798 0.7842 1.0139 0.4199 0.7128 1.3626 0.2601 0.2864
0.9605 0.2992 0.4447 0.6534 0.6279 0.3219 0.2680 0.4860 0.2658 0.2428 0.3166 0.2166 0.3019 0.5470 0.3532 0.4855 0.2331 0.4126 0.4384 0.2182 0.3223 0.4292 0.5824 0.8982 0.3808 0.7360 0.7634 1.0863 0.8711 0.5999 0.6516 0.2602 0.9631 0.4042 0.4062 0.2649 0.3970 0.2532 0.3278 0.2402 0.2747 0.4504 0.3716 0.3512 0.4279 0.5927 0.3502 0.2141 0.3278 0.5706 0.1908 0.5753 0.7560 0.9937 0.3955 0.7354 1.4606 0.2516 0.2834
0.9154 0.3030 0.4772 0.6816 0.6786 0.3296 0.2709 0.5039 0.2752 0.2418 0.3099 0.2264 0.3164 0.5224 0.3537 0.4868 0.2276 0.4134 0.4041 0.2230 0.3263 0.4189 0.5852 0.9083 0.3725 0.7561 0.7868 1.1011 0.8869 0.5886 0.6459 0.2587 1.0754 0.3900 0.4185 0.2711 0.4209 0.2573 0.3319 0.2406 0.2817 0.4433 0.3629 0.3473 0.4387 0.5884 0.3350 0.2162 0.3166 0.5684 0.1858 0.6317 0.7343 0.9850 0.4044 0.7156 1.4572 0.2607 0.2748
0.9122 0.2891 0.4465 0.6945 0.6860 0.3097 0.2710 0.4888 0.2687 0.2420 0.3120 0.2200 0.3030 0.5169 0.3573 0.4722 0.2271 0.4045 0.4263 0.2191 0.3178 0.4493 0.5747 0.9467 0.3787 0.7568 0.8444 1.0729 0.8738 0.5688 0.6516 0.2522 1.0432 0.3849 0.4033 0.2614 0.4144 0.2518 0.3352 0.2445 0.2761 0.4294 0.3596 0.3493 0.4267 0.5687 0.3396 0.2088 0.3284 0.5906 0.1893 0.6274 0.7626 1.0826 0.3866 0.7289 1.4079 0.2592 0.2660
0.8798 0.2837 0.4446 0.6693 0.6487 0.3086 0.2488 0.4911 0.2675 0.2367 0.3096 0.2194 0.3016 0.5081 0.3419 0.4818 0.2252 0.3961 0.4124 0.2239 0.3137 0.4304 0.5516 0.9662 0.3623 0.7411 0.7744 1.0523 0.8705 0.5489 0.6463 0.2425 1.0280 0.3747 0.3924 0.2452 0.3987 0.2486 0.3217 0.2376 0.2742 0.4253 0.3570 0.3426 0.4303 0.5790 0.3286 0.2155 0.3218 0.5700 0.1861 0.6089 0.7348 1.0178 0.3773 0.6973 1.3667 0.2468 0.2671
0.8614 0.2688 0.4517 0.6831 0.6714 0.2971 0.2535 0.5100 0.2627 0.2343 0.2964 0.2150 0.2948 0.4928 0.3291 0.4515 0.2206 0.3945 0.4276 0.2217 0.3096 0.4491 0.5453 0.9394 0.3693 0.7893 0.8109 1.0060 0.8481 0.5529 0.6317 0.2323 1.0075 0.3778 0.3958 0.2451 0.4091 0.2485 0.3122 0.2285 0.2749 0.4197 0.3314 0.3209 0.4041 0.5490 0.3275 0.2090 0.3156 0.6138 0.1889 0.5975 0.7221 1.1047 0.3725 0.7090 1.3584 0.2427 0.2620
0.8741 0.2727 0.4131 0.6473 0.6088 0.2941 0.2476 0.4511 0.2540 0.2214 0.2822 0.2065 0.2802 0.4891 0.3282 0.4507 0.2158 0.3762 0.3951 0.2109 0.2967 0.4323 0.5625 0.9185 0.3390 0.7363 0.7597 1.0198 0.8550 0.5466 0.6159 0.2390 0.9669 0.3776 0.3636 0.2402 0.3717 0.2422 0.3024 0.2167 0.2608 0.3933 0.3348 0.3167 0.4019 0.5478 0.3206 0.1940 0.3140 0.5409 0.1800 0.5615 0.7299 1.0462 0.3531 0.6783 1.3248 0.2360 0.2583
0.8943 0.2601 0.4329 0.6394 0.6734 0.2798 0.2480 0.4658 0.2460 0.2164 0.2722 0.2005 0.2891 0.4598 0.3076 0.4407 0.2119 0.3843 0.3957 0.2046 0.2747 0.4164 0.5455 0.9092 0.3279 0.7281 0.7654 0.9620 0.8653 0.5482 0.6086 0.2318 1.0356 0.3718 0.3715 0.2297 0.3930 0.2359 0.2922 0.2164 0.2499 0.4047 0.3112 0.2874 0.3892 0.5277 0.3168 0.1885 0.3088 0.5484 0.1776 0.5986 0.7280 1.0194 0.3408 0.6591 1.2714 0.2293 0.2564
0.8691 0.2636 0.4476 0.6376 0.6760 0.2716 0.2525 0.4686 0.2512 0.2103 0.2557 0.2013 0.2708 0.4656 0.3112 0.4486 0.2036 0.3655 0.3806 0.2017 0.2880 0.4117 0.5530 0.8396 0.3352 0.7260 0.7738 0.9581 0.8764 0.5494 0.6064 0.2306 1.0548 0.3611 0.3773 0.2260 0.3963 0.2398 0.2861 0.1992 0.2440 0.3829 0.3255 0.3022 0.3988 0.5295 0.3128 0.1810 0.3055 0.5228 0.1690 0.5816 0.6971 1.0204 0.3303 0.6648 1.3050 0.2282 0.2501
0.8750 0.2656 0.4219 0.6390 0.6591 0.2590 0.2400 0.4729 0.2418 0.2000 0.2464 0.1926 0.2805 0.4505 0.3070 0.4290 0.1989 0.3628 0.3734 0.1938 0.2773 0.4041 0.5379 0.8989 0.3136 0.7192 0.7530 0.9974 0.8325 0.5485 0.6263 0.2294 0.9835 0.3711 0.3685 0.2163 0.3762 0.2288 0.2676 0.1942 0.2482 0.3836 0.3186 0.2860 0.3787 0.5111 0.2951 0.1761 0.2927 0.5397 0.1692 0.5520 0.6703 1.0111 0.3249 0.6778 1.2522 0.2133 0.2472
0.8541 0.2529 0.4343 0.6542 0.7122 0.2631 0.2368 0.4559 0.2540 0.1947 0.2300 0.1827 0.2885 0.4476 0.3028 0.4099 0.2018 0.3502 0.3639 0.1857 0.2554 0.3966 0.5152 0.9164 0.3024 0.7277 0.7185 0.9580 0.8512 0.5253 0.6085 0.2211 1.0728 0.3413 0.3701 0.2181 0.4146 0.2205 0.2521 0.1872 0.2468 0.3941 0.2954 0.2648 0.3605 0.4928 0.2891 0.1656 0.2874 0.5591 0.1592 0.6004 0.6609 1.0080 0.3101 0.6453 1.2742 0.1966 0.2401
0.8040 0.2461 0.4066 0.6090 0.5607 0.2446 0.2301 0.4355 0.2410 0.1884 0.2192 0.1800 0.2560 0.4338 0.2867 0.4179 0.1919 0.3662 0.3729 0.1882 0.2572 0.3891 0.5128 0.9197 0.2974 0.7275 0.7070 0.9127 0.8009 0.5233 0.5836 0.2184 0.9329 0.3505 0.3272 0.1947 0.3607 0.2154 0.2579 0.1768 0.2345 0.3654 0.2948 0.2665 0.3717 0.5071 0.2972 0.1609 0.2795 0.5315 0.1582 0.5974 0.6925 0.9896 0.3141 0.6316 1.2531 0.1998 0.2422
0.7797 0.2389 0.3736 0.6026 0.6090 0.2412 0.2349 0.4290 0.2409 0.1822 0.2139 0.1796 0.2723 0.4222 0.2803 0.4032 0.1920 0.3433 0.3766 0.1874 0.2507 0.3752 0.5440 0.8791 0.2959 0.7293 0.7081 0.9087 0.7799 0.4782 0.5709 0.2154 0.9197 0.3377 0.3510 0.1977 0.3712 0.2094 0.2425 0.1682 0.2423 0.3664 0.2835 0.2608 0.3644 0.4759 0.2914 0.1611 0.2727 0.5627 0.1552 0.5676 0.6413 0.9790 0.3095 0.6401 1.1995 0.1924 0.2309
0.8047 0.2301 0.3704 0.5998 0.6039 0.2353 0.2305 0.4544 0.2339 0.1747 0.2059 0.1724 0.2693 0.4355 0.2800 0.3830 0.1887 0.3349 0.3458 0.1758 0.2470 0.3776 0.5068 0.8388 0.2920 0.6899 0.7264 0.9524 0.7711 0.4957 0.5927 0.2115 0.8863 0.3282 0.3478 0.1913 0.3697 0.2113 0.2295 0.1635 0.2336 0.3767 0.2915 0.2557 0.3444 0.4676 0.2829 0.1552 0.2607 0.5215 0.1513 0.5385 0.6604 0.9470 0.2968 0.6421 1.2031 0.1854 0.2275
0.7653 0.2205 0.3536 0.5635 0.5646 0.2238 0.2286 0.4477 0.2142 0.1660 0.1958 0.1728 0.2446 0.3982 0.2681 0.3852 0.1808 0.3431 0.3760 0.1694 0.2385 0.3801 0.5083 0.8397 0.2651 0.7277 0.6888 0.8876 0.7018 0.4948 0.5613 0.1982 0.7900 0.3217 0.3384 0.1857 0.3662 0.1995 0.2183 0.1562 0.2221 0.3366 0.2781 0.2557 0.3490 0.4713 0.2870 0.1487 0.2648 0.5449 0.1454 0.5381 0.6299 0.9353 0.2966 0.6277 1.1468 0.1753 0.2315
0.7505 0.2303 0.3482 0.5972 0.5797 0.2248 0.2165 0.4053 0.2131 0.1619 0.1863 0.1654 0.2427 0.3904 0.2619 0.3848 0.1733 0.3320 0.3462 0.1652 0.2463 0.3701 0.5236 0.8593 0.2720 0.7318 0.6685 0.8764 0.7244 0.4704 0.5484 0.2043 0.8419 0.3201 0.3244 0.1762 0.3723 0.1930 0.2133 0.1501 0.2149 0.3347 0.2749 0.2411 0.3445 0.4591 0.2688 0.1429 0.2591 0.5121 0.1493 0.5355 0.6275 0.9938 0.2831 0.6284 1.1201 0.1775 0.2282
0.7510 0.2211 0.3650 0.5760 0.6012 0.2236 0.2284 0.4297 0.2216 0.1605 0.1792 0.1569 0.2484 0.3846 0.2601 0.3634 0.1793 0.3361 0.3522 0.1597 0.2284 0.3780 0.5352 0.8320 0.2705 0.6985 0.7239 0.8486 0.7284 0.4795 0.5598 0.1989 0.8567 0.3283 0.3456 0.1789 0.3819 0.1920 0.2059 0.1454 0.2137 0.3330 0.2702 0.2441 0.3333 0.4472 0.2827 0.1406 0.2569 0.4906 0.1450 0.5254 0.6375 0.9848 0.2828 0.6076 1.1822 0.1707 0.2307
0.7405 0.2217 0.3464 0.5609 0.5402 0.2118 0.2205 0.4111 0.2160 0.1513 0.1790 0.1516 0.2443 0.3791 0.2493 0.3634 0.1735 0.3355 0.3652 0.1596 0.2227 0.3756 0.4868 0.8711 0.2577 0.7088 0.6760 0.8453 0.6900 0.4552 0.5645 0.1958 0.7766 0.3156 0.3388 0.1700 0.3476 0.1812 0.1960 0.1422 0.2170 0.3376 0.2644 0.2376 0.3296 0.4488 0.2739 0.1359 0.2500 0.5522 0.1389 0.5479 0.6080 0.9593 0.2783 0.6150 1.1634 0.1627 0.2272
0.7045 0.2160 0.3502 0.5266 0.5573 0.2086 0.2038 0.4072 0.2116 0.1503 0.1719 0.1528 0.2375 0.3730 0.2537 0.3575 0.1683 0.3267 0.3455 0.1536 0.2188 0.3818 0.4986 0.8507 0.2558 0.7007 0.6842 0.8085 0.6713 0.4494 0.5498 0.1996 0.7902 0.3045 0.3177 0.1696 0.3425 0.1824 0.1939 0.1371 0.2074 0.3226 0.2561 0.2283 0.3181 0.4433 0.2709 0.1354 0.2408 0.5206 0.1342 0.5496 0.6080 0.9302 0.2813 0.5796 1.0939 0.1594 0.2195
0.7183 0.2150 0.3573 0.5435 0.6122 0.2058 0.2083 0.3905 0.2046 0.1455 0.1702 0.1438 0.2396 0.3751 0.2490 0.3433 0.1675 0.3105 0.3366 0.1521 0.2141 0.3632 0.4865 0.8926 0.2644 0.7094 0.6431 0.7951 0.6941 0.4581 0.5408 0.1902 0.8557 0.3028 0.3299 0.1650 0.3658 0.1747 0.1865 0.1352 0.2024 0.3208 0.2540 0.2286 0.3036 0.4187 0.2539 0.1322 0.2378 0.5307 0.1371 0.5336 0.6081 0.9738 0.2799 0.5921 1.1033 0.1584 0.2179
0.6660 0.2042 0.3473 0.5720 0.5588 0.1986 0.2004 0.4273 0.2010 0.1424 0.1667 0.1410 0.2270 0.3594 0.2350 0.3484 0.1631 0.3024 0.3504 0.1491 0.2114 0.3350 0.4947 0.8754 0.2399 0.7059 0.6469 0.7713 0.6791 0.4313 0.5453 0.1843 0.8263 0.2994 0.3028 0.1634 0.3329 0.1736 0.1835 0.1304 0.2031 0.3179 0.2449 0.2194 0.3151 0.4149 0.2548 0.1270 0.2336 0.5137 0.1325 0.4963 0.6075 0.8986 0.2764 0.5675 1.0398 0.1538 0.2180
0.6773 0.2089 0.3530 0.5784 0.5841 0.2006 0.2002 0.4322 0.1922 0.1431 0.1638 0.1428 0.2342 0.3633 0.2379 0.3396 0.1644 0.3098 0.3428 0.1454 0.2113 0.3279 0.4875 0.7900 0.2478 0.7015 0.6774 0.7611 0.6971 0.4537 0.5096 0.1858 0.8562 0.2907 0.3086 0.1593 0.3394 0.1759 0.1814 0.1310 0.2040 0.3227 0.2421 0.2188 0.3081 0.4228 0.2599 0.1231 0.2392 0.5061 0.1292 0.4762 0.5722 0.9282 0.2738 0.5928 1.0885 0.1521 0.2111
0.6824 0.2011 0.3653 0.5787 0.6037 0.1972 0.1940 0.4013 0.1932 0.1349 0.1571 0.1415 0.2322 0.3484 0.2331 0.3350 0.1628 0.3027 0.3310 0.1427 0.2061 0.3523 0.4561 0.8166 0.2386 0.6997 0.6520 0.7421 0.7127 0.4502 0.4986 0.1857 0.9022 0.2859 0.3000 0.1480 0.3648 0.1626 0.1737 0.1285 0.1975 0.3164 0.2397 0.2132 0.2968 0.4062 0.2495 0.1218 0.2272 0.5175 0.1270 0.4951 0.5881 0.9366 0.2635 0.5657 1.0281 0.1465 0.2105
0.6336 0.2023 0.3507 0.5578 0.5632 0.1883 0.1999 0.4095 0.1872 0.1347 0.1595 0.1366 0.2312 0.3359 0.2332 0.3339 0.1554 0.2956 0.3127 0.1423 0.2026 0.3362 0.4625 0.7748 0.2364 0.6775 0.6441 0.7554 0.6784 0.4342 0.5020 0.1811 0.8684 0.2861 0.3108 0.1487 0.3249 0.1601 0.1768 0.1262 0.1967 0.3066 0.2260 0.2056 0.2951 0.3999 0.2458 0.1255 0.2181 0.4737 0.1289 0.5002 0.5664 0.8769 0.2557 0.5647 1.0117 0.1447 0.2120
0.6110 0.1936 0.3344 0.5612 0.5885 0.1868 0.2021 0.4217 0.1944 0.1340 0.1486 0.1340 0.2349 0.3378 0.2220 0.3251 0.1589 0.3167 0.3209 0.1413 0.1945 0.3506 0.4391 0.8311 0.2337 0.7027 0.6617 0.7463 0.6479 0.4216 0.4801 0.1802 0.8358 0.2925 0.3098 0.1510 0.3429 0.1654 0.1716 0.1226 0.1980 0.3164 0.2332 0.2046 0.2923 0.4144 0.2600 0.1166 0.2144 0.5135 0.1238 0.5001 0.5597 0.9398 0.2574 0.5719 0.9954 0.1439 0.2005
0.6238 0.1957 0.3410 0.5482 0.5848 0.1836 0.1901 0.3900 0.1848 0.1259 0.1519 0.1297 0.2276 0.3294 0.2227 0.3116 0.1479 0.2857 0.3201 0.1332 0.1938 0.3400 0.4470 0.7822 0.2301 0.7164 0.6251 0.6853 0.6365 0.4248 0.4709 0.1814 0.8355 0.2733 0.3031 0.1474 0.3405 0.1536 0.1640 0.1202 0.1905 0.2967 0.2286 0.2062 0.2796 0.3748 0.2359 0.1149 0.2141 0.4810 0.1214 0.4681 0.5806 0.8988 0.2601 0.5532 0.9924 0.1368 0.1999
0.6124 0.1876 0.3338 0.5315 0.5665 0.1793 0.1828 0.3742 0.1795 0.1240 0.1463 0.1277 0.2157 0.3195 0.2146 0.3030 0.1484 0.2924 0.3110 0.1317 0.1886 0.3184 0.4371 0.7997 0.2268 0.6895 0.6571 0.6998 0.5984 0.4076 0.4908 0.1774 0.7950 0.2607 0.2992 0.1434 0.3320 0.1488 0.1580 0.1163 0.1835 0.2940 0.2191 0.2005 0.2709 0.3765 0.2380 0.1139 0.2114 0.4972 0.1148 0.4720 0.5654 0.8979 0.2603 0.5600 0.9977 0.1328 0.2020
0.6116 0.1909 0.3309 0.5440 0.5874 0.1750 0.1877 0.4029 0.1901 0.1260 0.1447 0.1257 0.2208 0.3231 0.2151 0.3004 0.1506 0.2779 0.2965 0.1304 0.1818 0.3112 0.4169 0.7761 0.2196 0.6913 0.6158 0.6827 0.6193 0.4095 0.4653 0.1768 0.8017 0.2731 0.2903 0.1392 0.3496 0.1539 0.1563 0.1173 0.1842 0.3029 0.2181 0.1958 0.2715 0.3657 0.2340 0.1135 0.2075 0.4630 0.1181 0.4703 0.5435 0.8873 0.2530 0.5288 0.9488 0.1285 0.1912
0.5635 0.1831 0.3001 0.5055 0.5350 0.1688 0.1777 0.3919 0.1736 0.1207 0.1436 0.1209 0.2085 0.3018 0.2083 0.2982 0.1412 0.2723 0.3143 0.1272 0.1763 0.3296 0.4356 0.7794 0.2184 0.6907 0.6538 0.6738 0.5869 0.3848 0.4575 0.1663 0.7590 0.2784 0.2753 0.1390 0.3069 0.1470 0.1581 0.1122 0.1788 0.2825 0.2061 0.1969 0.2642 0.3562 0.2270 0.1093 0.2082 0.4806 0.1107 0.4863 0.5407 0.9174 0.2490 0.5276 0.9219 0.1262 0.1890
0.5422 0.1787 0.3040 0.5009 0.5203 0.1631 0.1705 0.3867 0.1771 0.1178 0.1396 0.1170 0.2172 0.2988 0.2038 0.2978 0.1410 0.2785 0.3033 0.1265 0.1800 0.3136 0.4206 0.7719 0.2168 0.7325 0.6013 0.6619 0.5504 0.3648 0.4541 0.1634 0.7368 0.2449 0.2652 0.1346 0.3034 0.1398 0.1558 0.1087 0.1862 0.2907 0.2041 0.1902 0.2659 0.3643 0.2305 0.1117 0.2092 0.4739 0.1118 0.4640 0.5271 0.8810 0.2524 0.5390 0.8991 0.1260 0.1910
0.5507 0.1857 0.3027 0.5023 0.5501 0.1641 0.1878 0.3998 0.1746 0.1145 0.1368 0.1158 0.2144 0.2980 0.2080 0.2920 0.1375 0.2717 0.2872 0.1235 0.1735 0.2882 0.4144 0.7594 0.2110 0.7000 0.5970 0.6570 0.5706 0.3758 0.4526 0.1687 0.7678 0.2463 0.2836 0.1344 0.3379 0.1396 0.1518 0.1055 0.1763 0.2839 0.2031 0.1887 0.2636 0.3582 0.2205 0.1087 0.1892 0.4394 0.1114 0.4511 0.5070 0.8955 0.2423 0.5374 0.9104 0.1213 0.1911
0.5128 0.1747 0.2848 0.4604 0.5426 0.1619 0.1796 0.3762 0.1732 0.1135 0.1357 0.1125 0.2027 0.2951 0.2020 0.2827 0.1361 0.2594 0.3045 0.1204 0.1698 0.3043 0.3999 0.7312 0.2136 0.6554 0.6054 0.6305 0.5143 0.3634 0.4419 0.1660 0.6816 0.2479 0.2742 0.1277 0.3434 0.1349 0.1448 0.1061 0.1748 0.2737 0.2053 0.1865 0.2510 0.3414 0.2146 0.1045 0.1918 0.4652 0.1113 0.4476 0.5442 0.8533 0.2398 0.5123 0.9014 0.1212 0.1919
0.5101 0.1707 0.2849 0.4774 0.5199 0.1593 0.1704 0.4062 0.1691 0.1113 0.1333 0.1127 0.2046 0.2876 0.1902 0.2803 0.1329 0.2499 0.3014 0.1212 0.1715 0.3330 0.4017 0.7222 0.2043 0.6334 0.5978 0.5988 0.5229 0.3643 0.4424 0.1588 0.6623 0.2428 0.2677 0.1257 0.3336 0.1370 0.1454 0.1021 0.1741 0.2713 0.1970 0.1808 0.2577 0.3430 0.2117 0.1023 0.1982 0.4816 0.1083 0.4477 0.5315 0.8118 0.2332 0.4839 0.8957 0.1217 0.1847
0.5038 0.1729 0.3006 0.4849 0.5417 0.1578 0.1798 0.4227 0.1679 0.1098 0.1334 0.1135 0.2053 0.2878 0.1888 0.2684 0.1305 0.2504 0.2792 0.1150 0.1696 0.2960 0.3764 0.7464 0.2112 0.6785 0.5921 0.5961 0.5468 0.3650 0.4282 0.1581 0.7274 0.2556 0.2763 0.1263 0.3149 0.1405 0.1403 0.1037 0.1785 0.2752 0.1956 0.1784 0.2435 0.3254 0.2089 0.1007 0.1879 0.4319 0.1075 0.4478 0.5049 0.8554 0.2302 0.5148 0.8625 0.1108 0.1807
0.5153 0.1629 0.2915 0.4832 0.5375 0.1534 0.1790 0.3694 0.1756 0.1078 0.1306 0.1115 0.2021 0.2795 0.1834 0.2667 0.1272 0.2531 0.2898 0.1134 0.1591 0.3188 0.4157 0.7247 0.1973 0.6397 0.5857 0.6071 0.5346 0.3659 0.4196 0.1559 0.7114 0.2475 0.2659 0.1230 0.3363 0.1369 0.1338 0.1041 0.1655 0.2620 0.1880 0.1726 0.2401 0.3312 0.2113 0.0996 0.1865 0.4710 0.1033 0.4519 0.5186 0.7989 0.2293 0.4955 0.9158 0.1141 0.1784
0.4750 0.1632 0.2880 0.4581 0.5183 0.1477 0.1703 0.3825 0.1611 0.1071 0.1279 0.1052 0.2092 0.2631 0.1789 0.2609 0.1238 0.2609 0.3024 0.1147 0.1613 0.3131 0.3925 0.7645 0.1972 0.6628 0.5779 0.6116 0.5064 0.3388 0.4249 0.1518 0.6831 0.2392 0.2662 0.1193 0.3147 0.1296 0.1371 0.1010 0.1725 0.2689 0.1820 0.1699 0.2314 0.3288 0.2084 0.0998 0.1812 0.4977 0.1051 0.4428 0.4893 0.8702 0.2179 0.5090 0.8790 0.1150 0.1742
0.4822 0.1555 0.2694 0.5163 0.5321 0.1488 0.1674 0.3866 0.1615 0.1050 0.1247 0.1056 0.2068 0.2663 0.1790 0.2595 0.1241 0.2482 0.2805 0.1126 0.1502 0.2912 0.3991 0.6815 0.1917 0.6609 0.5897 0.5915 0.5268 0.3396 0.4069 0.1469 0.6993 0.2365 0.2545 0.1177 0.3214 0.1252 0.1331 0.0982 0.1740 0.2655 0.1809 0.1700 0.2319 0.3203 0.2000 0.0972 0.1807 0.4480 0.0999 0.4168 0.4980 0.8387 0.2205 0.4954 0.8472 0.1094 0.1747
0.4785 0.1591 0.2737 0.4808 0.5022 0.1451 0.1599 0.3918 0.1642 0.1008 0.1225 0.1042 0.2022 0.2567 0.1685 0.2577 0.1226 0.2520 0.2833 0.1066 0.1559 0.2812 0.3922 0.7651 0.1903 0.6604 0.5889 0.6036 0.5188 0.3378 0.4131 0.1443 0.7103 0.2387 0.2432 0.1181 0.2848 0.1276 0.1292 0.0953 0.1709 0.2595 0.1766 0.1567 0.2327 0.3225 0.2045 0.0958 0.1740 0.4755 0.0956 0.4376 0.4918 0.8365 0.2213 0.4990 0.8647 0.1074 0.1701
0.4563 0.1507 0.2602 0.4554 0.4651 0.1400 0.1637 0.3864 0.1680 0.0962 0.1150 0.1010 0.1962 0.2588 0.1671 0.2415 0.1183 0.2324 0.2695 0.1030 0.1484 0.2908 0.3612 0.7362 0.1849 0.6087 0.5256 0.5507 0.4826 0.3158 0.3896 0.1417 0.6293 0.2381 0.2324 0.1161 0.3005 0.1236 0.1257 0.0917 0.1705 0.2581 0.1768 0.1582 0.2203 0.2941 0.1885 0.0899 0.1721 0.4630 0.0982 0.4327 0.4644 0.7753 0.2075 0.4529 0.7880 0.1071 0.1680
0.4553 0.1493 0.2455 0.4693 0.4610 0.1381 0.1590 0.3853 0.1464 0.0960 0.1168 0.1008 0.1880 0.2498 0.1643 0.2445 0.1137 0.2405 0.2631 0.1036 0.1471 0.2760 0.3492 0.7026 0.1863 0.6072 0.5390 0.5507 0.4690 0.3249 0.3925 0.1397 0.6119 0.2246 0.2230 0.1091 0.2917 0.1210 0.1229 0.0913 0.1594 0.2504 0.1715 0.1592 0.2230 0.2981 0.1895 0.0884 0.1624 0.4361 0.0956 0.4050 0.4808 0.8055 0.2059 0.4658 0.8049 0.1014 0.1686
0.4355 0.1502 0.2570 0.4361 0.4974 0.1324 0.1487 0.3662 0.1429 0.0938 0.1165 0.0970 0.1878 0.2435 0.1619 0.2404 0.1150 0.2222 0.2464 0.0998 0.1430 0.2756 0.3736 0.6306 0.1787 0.5931 0.5588 0.5060 0.4677 0.3171 0.3902 0.1371 0.6355 0.2125 0.2459 0.1076 0.2897 0.1157 0.1235 0.0913 0.1564 0.2452 0.1662 0.1581 0.2170 0.2937 0.1891 0.0885 0.1644 0.3946 0.0911 0.3911 0.4436 0.7462 0.2042 0.4370 0.7407 0.0964 0.1639
0.4115 0.1417 0.2462 0.4156 0.4414 0.1320 0.1468 0.3567 0.1471 0.0911 0.1165 0.0932 0.1838 0.2354 0.1538 0.2313 0.1135 0.2251 0.2610 0.0988 0.1408 0.2880 0.3482 0.6815 0.1827 0.5841 0.5684 0.4950 0.4265 0.3017 0.3703 0.1316 0.5870 0.2242 0.2164 0.1065 0.2744 0.1133 0.1220 0.0888 0.1583 0.2410 0.1665 0.1516 0.2118 0.2898 0.1852 0.0888 0.1659 0.4032 0.0885 0.4724 0.4698 0.7472 0.1973 0.4216 0.7750 0.0991 0.1587
0.4277 0.1420 0.2516 0.4572 0.4706 0.1267 0.1458 0.3845 0.1519 0.0921 0.1081 0.0905 0.1903 0.2333 0.1542 0.2287 0.1120 0.2298 0.2561 0.0995 0.1374 0.2786 0.3635 0.6552 0.1749 0.5826 0.5402 0.5257 0.4698 0.3066 0.3806 0.1344 0.6299 0.2138 0.2258 0.1036 0.2915 0.1143 0.1183 0.0852 0.1585 0.2416 0.1606 0.1489 0.2087 0.2885 0.1840 0.0867 0.1612 0.4328 0.0897 0.4306 0.4325 0.7528 0.1944 0.4413 0.7697 0.0968 0.1554
0.4186 0.1377 0.2378 0.4474 0.4597 0.1266 0.1450 0.3747 0.1433 0.0852 0.1057 0.0894 0.1787 0.2224 0.1491 0.2210 0.1094 0.2213 0.2541 0.0954 0.1316 0.2813 0.3469 0.6480 0.1772 0.5640 0.5182 0.4916 0.4471 0.2990 0.3669 0.1324 0.5918 0.2054 0.2214 0.1007 0.2730 0.1107 0.1126 0.0826 0.1524 0.2305 0.1557 0.1433 0.2027 0.2701 0.1784 0.0860 0.1512 0.4295 0.0914 0.3936 0.4513 0.7400 0.1966 0.4236 0.7441 0.0928 0.1551
0.3918 0.1344 0.2211 0.4148 0.4431 0.1192 0.1422 0.3859 0.1420 0.0839 0.1029 0.0896 0.1713 0.2211 0.1466 0.2154 0.1030 0.2132 0.2593 0.0933 0.1266 0.2663 0.3429 0.6221 0.1726 0.5260 0.5260 0.4921 0.4056 0.2840 0.3607 0.1248 0.5339 0.1995 0.2204 0.0972 0.2941 0.1053 0.1092 0.0817 0.1481 0.2235 0.1521 0.1405 0.1922 0.2673 0.1763 0.0846 0.1494 0.3988 0.0876 0.3742 0.4439 0.7513 0.1814 0.4170 0.7595 0.0919 0.1517
0.3850 0.1307 0.2092 0.4120 0.3919 0.1130 0.1297 0.3567 0.1340 0.0831 0.1023 0.0873 0.1663 0.2149 0.1423 0.2101 0.1024 0.2063 0.2366 0.0895 0.1234 0.2461 0.3302 0.6005 0.1638 0.5047 0.5046 0.4552 0.4021 0.2775 0.3406 0.1263 0.5069 0.2021 0.1975 0.0930 0.2548 0.1031 0.1066 0.0789 0.1470 0.2191 0.1498 0.1346 0.1904 0.2633 0.1742 0.0786 0.1529 0.3731 0.0825 0.3774 0.4144 0.7127 0.1742 0.3722 0.7013 0.0875 0.1456
0.3716 0.1337 0.2046 0.4137 0.3941 0.1132 0.1310 0.3626 0.1258 0.0825 0.0994 0.0843 0.1682 0.2109 0.1376 0.2054 0.1000 0.2036 0.2349 0.0909 0.1210 0.2423 0.3263 0.6134 0.1576 0.5043 0.5008 0.4781 0.3963 0.2671 0.3391 0.1184 0.5207 0.1880 0.2007 0.0927 0.2454 0.1013 0.1060 0.0779 0.1464 0.2211 0.1445 0.1359 0.1850 0.2613 0.1717 0.0768 0.1476 0.3675 0.0813 0.3657 0.4109 0.7152 0.1765 0.3851 0.6997 0.0880 0.1449
0.3559 0.1288 0.2173 0.4107 0.4152 0.1107 0.1304 0.3594 0.1299 0.0781 0.0975 0.0842 0.1635 0.2092 0.1318 0.2022 0.0968 0.1942 0.2173 0.0880 0.1199 0.2402 0.3167 0.6063 0.1536 0.4890 0.4553 0.4469 0.3890 0.2568 0.3256 0.1169 0.5652 0.1911 0.1987 0.0897 0.2464 0.0984 0.1059 0.0761 0.1439 0.2192 0.1458 0.1319 0.1855 0.2461 0.1591 0.0750 0.1410 0.3478 0.0776 0.3800 0.4070 0.6449 0.1689 0.3749 0.6756 0.0865 0.1429
0.3658 0.1202 0.2085 0.4240 0.4392 0.1131 0.1360 0.3464 0.1350 0.0776 0.0951 0.0810 0.1694 0.2016 0.1294 0.1942 0.0960 0.1999 0.2366 0.0822 0.1201 0.2592 0.3286 0.6297 0.1591 0.4669 0.5117 0.4556 0.3869 0.2600 0.3342 0.1145 0.5300 0.2060 0.2091 0.0901 0.2819 0.0984 0.0994 0.0758 0.1428 0.2204 0.1406 0.1257 0.1760 0.2444 0.1648 0.0750 0.1365 0.4033 0.0793 0.3656 0.4247 0.6889 0.1648 0.3745 0.6831 0.0857 0.1390
0.3649 0.1227 0.2055 0.4036 0.4204 0.1038 0.1264 0.3521 0.1223 0.0727 0.0945 0.0794 0.1635 0.1926 0.1286 0.1934 0.0918 0.1896 0.2241 0.0828 0.1131 0.2494 0.3175 0.5613 0.1518 0.4341 0.4862 0.4418 0.3870 0.2584 0.3267 0.1129 0.5474 0.1967 0.1893 0.0871 0.2456 0.0918 0.0976 0.0752 0.1396 0.2164 0.1317 0.1221 0.1724 0.2378 0.1535 0.0735 0.1331 0.3635 0.0767 0.3609 0.4128 0.6231 0.1610 0.3398 0.6450 0.0833 0.1359
0.3391 0.1212 0.2013 0.3580 0.3835 0.0993 0.1181 0.3309 0.1231 0.0743 0.0896 0.0785 0.1568 0.1966 0.1256 0.1859 0.0917 0.1944 0.2139 0.0840 0.1117 0.2336 0.3129 0.5562 0.1412 0.4483 0.4781 0.4184 0.3385 0.2453 0.3179 0.1096 0.4749 0.1815 0.1823 0.0844 0.2372 0.0921 0.0934 0.0713 0.1331 0.2062 0.1378 0.1247 0.1732 0.2376 0.1540 0.0723 0.1318 0.3555 0.0747 0.3371 0.3849 0.6492 0.1563 0.3385 0.6530 0.0794 0.1305
0.3611 0.1152 0.1968 0.3740 0.4090 0.1021 0.1236 0.3423 0.1216 0.0717 0.0869 0.0756 0.1633 0.1830 0.1216 0.1823 0.0883 0.1925 0.2164 0.0786 0.1049 0.2206 0.2931 0.5393 0.1390 0.4342 0.4544 0.4236 0.3771 0.2404 0.3165 0.1076 0.5166 0.1750 0.1836 0.0849 0.2512 0.0899 0.0908 0.0701 0.1368 0.2036 0.1270 0.1177 0.1670 0.2345 0.1548 0.0681 0.1299 0.3387 0.0723 0.3441 0.3773 0.6060 0.1466 0.3405 0.6555 0.0770 0.1274
0.3309 0.1180 0.2073 0.3741 0.4436 0.0999 0.1188 0.3399 0.1209 0.0701 0.0824 0.0748 0.1590 0.1789 0.1203 0.1791 0.0866 0.1931 0.2120 0.0800 0.1090 0.2253 0.2821 0.5452 0.1352 0.4383 0.4472 0.4172 0.3718 0.2403 0.3053 0.1073 0.5488 0.1714 0.1871 0.0831 0.2585 0.0899 0.0893 0.0651 0.1332 0.2028 0.1221 0.1168 0.1568 0.2275 0.1529 0.0673 0.1270 0.3575 0.0700 0.3433 0.3556 0.6173 0.1446 0.3481 0.6204 0.0765 0.1226
0.3290 0.1131 0.1936 0.3618 0.3785 0.0947 0.1146 0.3475 0.1164 0.0685 0.0829 0.0746 0.1493 0.1779 0.1187 0.1793 0.0849 0.1733 0.1978 0.0735 0.1016 0.2049 0.2653 0.5603 0.1348 0.4090 0.4238 0.4110 0.3428 0.2257 0.3057 0.1044 0.4729 0.1735 0.1776 0.0789 0.2409 0.0850 0.0870 0.0665 0.1309 0.1993 0.1246 0.1107 0.1573 0.2124 0.1383 0.0639 0.1200 0.3400 0.0691 0.3225 0.3499 0.6274 0.1417 0.3213 0.6283 0.0717 0.1195
0.3329 0.1065 0.1984 0.3470 0.4115 0.0944 0.1155 0.3368 0.1196 0.0672 0.0822 0.0697 0.1607 0.1745 0.1163 0.1701 0.0830 0.1779 0.2042 0.0731 0.0995 0.2225 0.2830 0.5263 0.1323 0.3910 0.4322 0.3979 0.3563 0.2338 0.2955 0.0971 0.5043 0.1697 0.1895 0.0756 0.2457 0.0828 0.0840 0.0632 0.1294 0.2004 0.1217 0.1120 0.1541 0.2142 0.1433 0.0651 0.1227 0.3520 0.0666 0.3048 0.3531 0.5681 0.1410 0.3124 0.5995 0.0695 0.1201
0.3241 0.1051 0.1953 0.3601 0.3777 0.0915 0.1156 0.3239 0.1120 0.0632 0.0785 0.0693 0.1485 0.1603 0.1070 0.1674 0.0800 0.1685 0.1866 0.0712 0.0961 0.2054 0.2639 0.5627 0.1313 0.4104 0.4031 0.3889 0.3468 0.2270 0.2977 0.0973 0.5016 0.1766 0.1727 0.0756 0.2223 0.0823 0.0821 0.0627 0.1257 0.1879 0.1175 0.1070 0.1509 0.2062 0.1335 0.0631 0.1198 0.3135 0.0668 0.3387 0.3399 0.5993 0.1321 0.3108 0.5608 0.0692 0.1137
0.3247 0.1076 0.1933 0.3375 0.4091 0.0927 0.1122 0.3291 0.1118 0.0629 0.0773 0.0664 0.1521 0.1676 0.1079 0.1617 0.0782 0.1712 0.1995 0.0696 0.0941 0.2109 0.2671 0.5223 0.1295 0.3963 0.4248 0.3945 0.3463 0.2206 0.2961 0.0983 0.5131 0.1658 0.1787 0.0734 0.2448 0.0765 0.0825 0.0620 0.1213 0.1922 0.1156 0.1060 0.1432 0.2065 0.1332 0.0604 0.1154 0.3574 0.0638 0.2972 0.3425 0.6053 0.1321 0.3138 0.5697 0.0676 0.1075
0.3075 0.0992 0.1816 0.3172 0.3892 0.0903 0.1063 0.2991 0.1010 0.0624 0.0782 0.0644 0.1372 0.1592 0.1037 0.1518 0.0791 0.1598 0.1801 0.0673 0.0904 0.1945 0.2687 0.4705 0.1194 0.3579 0.4049 0.3546 0.3126 0.2146 0.2808 0.0918 0.4646 0.1624 0.1700 0.0729 0.2187 0.0789 0.0804 0.0612 0.1135 0.1777 0.1117 0.0993 0.1352 0.1890 0.1324 0.0608 0.1124 0.2831 0.0594 0.2860 0.3367 0.5426 0.1260 0.2793 0.5331 0.0659 0.1033
0.3054 0.0990 0.1878 0.3435 0.3963 0.0904 0.1064 0.3088 0.0998 0.0608 0.0700 0.0646 0.1396 0.1507 0.0983 0.1477 0.0731 0.1618 0.1844 0.0663 0.0954 0.2073 0.2663 0.5228 0.1199 0.3739 0.4182 0.3696 0.3271 0.2226 0.2876 0.0882 0.4881 0.1567 0.1703 0.0695 0.2175 0.0788 0.0758 0.0571 0.1171 0.1759 0.1052 0.0944 0.1352 0.1885 0.1232 0.0573 0.1107 0.3170 0.0593 0.3245 0.3436 0.5753 0.1245 0.2911 0.5235 0.0647 0.1057
0.2954 0.0984 0.1873 0.3125 0.3891 0.0851 0.1035 0.2824 0.0975 0.0583 0.0719 0.0631 0.1353 0.1510 0.0985 0.1466 0.0736 0.1522 0.1714 0.0638 0.0884 0.1764 0.2568 0.4831 0.1115 0.3450 0.3935 0.3485 0.3180 0.2006 0.2610 0.0907 0.4714 0.1494 0.1763 0.0673 0.2132 0.0732 0.0757 0.0567 0.1126 0.1727 0.1048 0.0980 0.1377 0.1847 0.1222 0.0550 0.1101 0.2951 0.0576 0.2806 0.2979 0.5299 0.1170 0.2735 0.5217 0.0620 0.0986
0.2814 0.0957 0.1747 0.3033 0.3159 0.0827 0.0974 0.2691 0.0948 0.0549 0.0676 0.0590 0.1288 0.1459 0.0957 0.1394 0.0699 0.1485 0.1670 0.0644 0.0831 0.1868 0.2489 0.4940 0.1107 0.3437 0.3969 0.3617 0.2955 0.2012 0.2631 0.0891 0.4259 0.1468 0.1537 0.0670 0.1844 0.0698 0.0717 0.0525 0.1096 0.1637 0.1033 0.0946 0.1279 0.1734 0.1175 0.0548 0.0977 0.3150 0.0576 0.2854 0.3096 0.5597 0.1133 0.2828 0.5398 0.0599 0.0942
0.2754 0.0923 0.1707 0.3100 0.3253 0.0778 0.0942 0.2809 0.0950 0.0530 0.0661 0.0578 0.1263 0.1358 0.0908 0.1383 0.0670 0.1460 0.1670 0.0622 0.0817 0.1833 0.2365 0.4942 0.1090 0.3344 0.3695 0.3473 0.3031 0.1980 0.2544 0.0829 0.4326 0.1382 0.1531 0.0632 0.2003 0.0651 0.0665 0.0527 0.1059 0.1600 0.0952 0.0906 0.1228 0.1785 0.1135 0.0527 0.0987 0.3145 0.0561 0.2776 0.2915 0.5398 0.1110 0.2773 0.5061 0.0575 0.0960
0.2582 0.0859 0.1578 0.3045 0.3378 0.0772 0.0882 0.2769 0.0955 0.0532 0.0643 0.0560 0.1256 0.1387 0.0902 0.1309 0.0647 0.1433 0.1641 0.0600 0.0789 0.1676 0.2444 0.4256 0.1084 0.3157 0.3636 0.3348 0.2921 0.1791 0.2424 0.0796 0.4233 0.1410 0.1443 0.0620 0.1946 0.0664 0.0694 0.0514 0.1074 0.1617 0.0972 0.0868 0.1192 0.1630 0.1140 0.0505 0.0966 0.2622 0.0539 0.2727 0.2926 0.4892 0.1061 0.2597 0.5142 0.0557 0.0918
0.2533 0.0841 0.1427 0.2789 0.2993 0.0751 0.0865 0.2600 0.0927 0.0511 0.0627 0.0565 0.1161 0.1302 0.0856 0.1306 0.0633 0.1376 0.1680 0.0581 0.0785 0.1704 0.2220 0.4395 0.1033 0.3049 0.3342 0.3226 0.2751 0.1729 0.2390 0.0757 0.3750 0.1338 0.1364 0.0596 0.1826 0.0663 0.0659 0.0510 0.1004 0.1483 0.0906 0.0840 0.1177 0.1657 0.1097 0.0505 0.0942 0.2905 0.0503 0.2419 0.2821 0.4679 0.1075 0.2492 0.4586 0.0549 0.0895
0.2528 0.0815 0.1335 0.2849 0.2763 0.0724 0.0870 0.2602 0.0857 0.0487 0.0624 0.0535 0.1113 0.1276 0.0863 0.1280 0.0608 0.1292 0.1495 0.0553 0.0723 0.1791 0.2418 0.4424 0.1050 0.3013 0.3609 0.3148 0.2622 0.1717 0.2278 0.0760 0.3508 0.1331 0.1247 0.0580 0.1697 0.0634 0.0639 0.0487 0.0987 0.1490 0.0888 0.0837 0.1136 0.1583 0.1032 0.0483 0.0939 0.2698 0.0511 0.2551 0.2920 0.5174 0.1030 0.2480 0.4992 0.0528 0.0896
0.2356 0.0802 0.1415 0.2733 0.2881 0.0700 0.0867 0.2571 0.0837 0.0475 0.0589 0.0508 0.1069 0.1223 0.0827 0.1232 0.0603 0.1337 0.1481 0.0549 0.0726 0.1698 0.2203 0.4192 0.1076 0.2919 0.3645 0.3056 0.2501 0.1684 0.2235 0.0745 0.3552 0.1282 0.1331 0.0551 0.1779 0.0602 0.0636 0.0469 0.0936 0.1400 0.0859 0.0814 0.1126 0.1582 0.1048 0.0474 0.0887 0.2555 0.0507 0.2610 0.2831 0.4759 0.1039 0.2360 0.4704 0.0509 0.0876
0.2490 0.0811 0.1409 0.2869 0.2822 0.0648 0.0841 0.2412 0.0823 0.0476 0.0583 0.0496 0.1064 0.1153 0.0783 0.1170 0.0572 0.1327 0.1483 0.0529 0.0698 0.1597 0.2058 0.4333 0.0961 0.2944 0.3435 0.2985 0.2765 0.1679 0.2262 0.0721 0.3776 0.1248 0.1261 0.0549 0.1682 0.0611 0.0609 0.0467 0.0920 0.1367 0.0802 0.0768 0.1034 0.1513 0.0997 0.0457 0.0849 0.2709 0.0467 0.2446 0.2772 0.4856 0.0969 0.2343 0.4559 0.0500 0.0815
0.2410 0.0764 0.1346 0.2698 0.2684 0.0634 0.0805 0.2396 0.0798 0.0450 0.0543 0.0468 0.1108 0.1140 0.0772 0.1141 0.0562 0.1237 0.1443 0.0503 0.0683 0.1512 0.2215 0.3686 0.0932 0.2788 0.3344 0.3081 0.2647 0.1639 0.2198 0.0703 0.3610 0.1250 0.1253 0.0520 0.1596 0.0554 0.0567 0.0426 0.0927 0.1378 0.0818 0.0748 0.1015 0.1448 0.0990 0.0446 0.0822 0.2450 0.0460 0.2267 0.2626 0.4246 0.0932 0.2353 0.4388 0.0473 0.0803
0.2217 0.0757 0.1358 0.2554 0.2794 0.0634 0.0788 0.2264 0.0778 0.0424 0.0545 0.0475 0.1024 0.1079 0.0735 0.1075 0.0552 0.1145 0.1358 0.0481 0.0655 0.1409 0.2052 0.3883 0.0926 0.2857 0.3205 0.2880 0.2411 0.1576 0.2096 0.0690 0.3561 0.1188 0.1224 0.0515 0.1578 0.0570 0.0554 0.0435 0.0882 0.1277 0.0779 0.0725 0.0981 0.1356 0.0913 0.0423 0.0818 0.2369 0.0443 0.2173 0.2567 0.4371 0.0954 0.2336 0.4241 0.0460 0.0794
0.2180 0.0718 0.1335 0.2653 0.2588 0.0615 0.0769 0.2357 0.0763 0.0429 0.0531 0.0462 0.1014 0.1054 0.0699 0.1049 0.0506 0.1161 0.1453 0.0473 0.0648 0.1511 0.1786 0.3648 0.0884 0.2637 0.3141 0.2892 0.2497 0.1562 0.2031 0.0662 0.3503 0.1190 0.1172 0.0495 0.1505 0.0534 0.0536 0.0431 0.0891 0.1287 0.0758 0.0674 0.0950 0.1353 0.0885 0.0418 0.0779 0.2389 0.0429 0.2260 0.2567 0.4249 0.0881 0.2252 0.4228 0.0456 0.0783
0.2103 0.0697 0.1309 0.2514 0.2524 0.0594 0.0727 0.2128 0.0702 0.0401 0.0514 0.0443 0.0940 0.1043 0.0681 0.1015 0.0509 0.1130 0.1253 0.0447 0.0620 0.1398 0.1984 0.3709 0.0864 0.2591 0.3074 0.2777 0.2404 0.1507 0.2023 0.0630 0.3407 0.1108 0.1199 0.0472 0.1408 0.0522 0.0528 0.0409 0.0806 0.1215 0.0743 0.0663 0.0900 0.1312 0.0875 0.0396 0.0751 0.2356 0.0428 0.2053 0.2315 0.4280 0.0856 0.2204 0.3989 0.0442 0.0728
0.2050 0.0684 0.1283 0.2367 0.2569 0.0565 0.0716 0.2024 0.0686 0.0381 0.0485 0.0415 0.0927 0.1028 0.0676 0.0987 0.0478 0.1140 0.1286 0.0454 0.0594 0.1408 0.1797 0.3542 0.0808 0.2573 0.2924 0.2748 0.2318 0.1455 0.1976 0.0601 0.3274 0.1062 0.1144 0.0453 0.1464 0.0493 0.0497 0.0383 0.0793 0.1200 0.0725 0.0660 0.0880 0.1287 0.0838 0.0387 0.0736 0.2319 0.0394 0.2074 0.2285 0.4162 0.0845 0.2132 0.4010 0.0411 0.0697
0.2048 0.0689 0.1246 0.2128 0.2504 0.0553 0.0728 0.2039 0.0691 0.0388 0.0477 0.0405 0.0908 0.0965 0.0642 0.0965 0.0470 0.1046 0.1181 0.0422 0.0603 0.1268 0.1816 0.3533 0.0799 0.2497 0.2880 0.2750 0.2098 0.1405 0.1944 0.0602 0.3036 0.1032 0.1157 0.0440 0.1489 0.0502 0.0481 0.0381 0.0749 0.1127 0.0689 0.0639 0.0867 0.1235 0.0819 0.0365 0.0707 0.2187 0.0397 0.1962 0.2137 0.4197 0.0795 0.2128 0.3869 0.0418 0.0681
0.1914 0.0621 0.1136 0.2105 0.2354 0.0536 0.0697 0.2006 0.0669 0.0353 0.0459 0.0391 0.0877 0.0901 0.0609 0.0953 0.0453 0.0999 0.1169 0.0412 0.0559 0.1318 0.1746 0.3520 0.0791 0.2272 0.2914 0.2615 0.2034 0.1333 0.1852 0.0572 0.2954 0.1052 0.1021 0.0419 0.1329 0.0470 0.0476 0.0364 0.0759 0.1136 0.0646 0.0599 0.0827 0.1188 0.0794 0.0366 0.0676 0.2201 0.0383 0.1976 0.2276 0.3910 0.0762 0.1970 0.3873 0.0386 0.0678
0.1981 0.0615 0.1188 0.2136 0.2647 0.0527 0.0693 0.1934 0.0647 0.0358 0.0449 0.0374 0.0903 0.0893 0.0591 0.0906 0.0436 0.0942 0.1182 0.0412 0.0540 0.1321 0.1640 0.3159 0.0774 0.2131 0.2747 0.2633 0.2167 0.1409 0.1828 0.0554 0.3299 0.0987 0.1071 0.0423 0.1411 0.0458 0.0471 0.0357 0.0735 0.1136 0.0623 0.0567 0.0790 0.1107 0.0737 0.0361 0.0644 0.2148 0.0375 0.1876 0.2185 0.3682 0.0737 0.1870 0.3679 0.0386 0.0641
0.1870 0.0595 0.1086 0.2011 0.2340 0.0478 0.0615 0.1797 0.0610 0.0338 0.0420 0.0350 0.0842 0.0841 0.0559 0.0848 0.0409 0.0923 0.1055 0.0377 0.0510 0.1119 0.1659 0.3173 0.0697 0.2273 0.2639 0.2465 0.1981 0.1225 0.1696 0.0518 0.2877 0.0930 0.1011 0.0397 0.1374 0.0415 0.0424 0.0327 0.0690 0.1045 0.0604 0.0562 0.0765 0.1096 0.0742 0.0334 0.0634 0.1751 0.0336 0.1764 0.1954 0.3868 0.0697 0.1893 0.3551 0.0353 0.0590
0.1712 0.0556 0.1050 0.1936 0.2139 0.0481 0.0589 0.1702 0.0618 0.0325 0.0408 0.0347 0.0796 0.0797 0.0531 0.0807 0.0395 0.0863 0.1066 0.0378 0.0497 0.1191 0.1558 0.2889 0.0702 0.2087 0.2585 0.2261 0.1862 0.1196 0.1546 0.0509 0.2685 0.0924 0.0917 0.0384 0.1209 0.0411 0.0422 0.0321 0.0688 0.0998 0.0575 0.0532 0.0727 0.1034 0.0687 0.0328 0.0621 0.1801 0.0340 0.1830 0.1993 0.3446 0.0683 0.1687 0.3358 0.0350 0.0571
0.1741 0.0537 0.1089 0.1912 0.2170 0.0467 0.0634 0.1679 0.0611 0.0317 0.0389 0.0337 0.0811 0.0754 0.0508 0.0761 0.0389 0.0876 0.1008 0.0353 0.0506 0.1037 0.1551 0.2754 0.0644 0.2196 0.2359 0.2341 0.1881 0.1183 0.1582 0.0493 0.2812 0.0864 0.0986 0.0371 0.1270 0.0409 0.0410 0.0319 0.0672 0.0983 0.0544 0.0511 0.0690 0.1028 0.0689 0.0305 0.0584 0.1603 0.0322 0.1680 0.1894 0.3370 0.0671 0.1777 0.3323 0.0342 0.0563
0.1546 0.0500 0.1013 0.1909 0.2062 0.0440 0.0552 0.1682 0.0551 0.0291 0.0374 0.0322 0.0750 0.0749 0.0506 0.0770 0.0374 0.0852 0.1007 0.0359 0.0450 0.1173 0.1438 0.2825 0.0638 0.1987 0.2461 0.2168 0.1873 0.1108 0.1459 0.0482 0.2721 0.0842 0.0884 0.0349 0.1095 0.0389 0.0374 0.0293 0.0648 0.0933 0.0527 0.0485 0.0677 0.1000 0.0649 0.0305 0.0555 0.1970 0.0315 0.1710 0.1847 0.3235 0.0661 0.1699 0.3026 0.0312 0.0551
0.1571 0.0481 0.0926 0.1766 0.1784 0.0418 0.0526 0.1540 0.0533 0.0287 0.0363 0.0301 0.0681 0.0722 0.0489 0.0718 0.0357 0.0797 0.0920 0.0329 0.0429 0.1088 0.1422 0.2738 0.0593 0.1994 0.2216 0.2184 0.1699 0.1090 0.1492 0.0447 0.2377 0.0788 0.0820 0.0335 0.1032 0.0375 0.0374 0.0281 0.0587 0.0873 0.0523 0.0481 0.0639 0.0929 0.0627 0.0290 0.0528 0.1759 0.0295 0.1639 0.1731 0.3089 0.0611 0.1704 0.2922 0.0303 0.0540
0.1484 0.0476 0.0926 0.1688 0.1878 0.0399 0.0518 0.1453 0.0488 0.0270 0.0341 0.0292 0.0656 0.0704 0.0457 0.0664 0.0338 0.0799 0.0939 0.0316 0.0426 0.1022 0.1392 0.2596 0.0602 0.1998 0.2347 0.2057 0.1617 0.1005 0.1357 0.0438 0.2302 0.0774 0.0830 0.0324 0.1029 0.0358 0.0358 0.0274 0.0560 0.0845 0.0502 0.0454 0.0594 0.0903 0.0609 0.0272 0.0517 0.1734 0.0285 0.1523 0.1655 0.3232 0.0636 0.1609 0.2951 0.0294 0.0503
0.1442 0.0463 0.0883 0.1586 0.1844 0.0393 0.0487 0.1320 0.0490 0.0257 0.0330 0.0276 0.0653 0.0657 0.0443 0.0671 0.0332 0.0774 0.0970 0.0306 0.0413 0.1044 0.1352 0.2557 0.0568 0.1789 0.2304 0.1955 0.1554 0.0969 0.1348 0.0418 0.2303 0.0729 0.0784 0.0304 0.1060 0.0334 0.0342 0.0261 0.0527 0.0788 0.0478 0.0437 0.0604 0.0875 0.0594 0.0263 0.0500 0.1646 0.0274 0.1502 0.1683 0.3047 0.0575 0.1467 0.2914 0.0283 0.0475
0.1356 0.0430 0.0842 0.1535 0.1663 0.0373 0.0457 0.1420 0.0445 0.0262 0.0318 0.0267 0.0614 0.0626 0.0426 0.0627 0.0305 0.0687 0.0818 0.0284 0.0381 0.0950 0.1260 0.2259 0.0544 0.1635 0.2124 0.1890 0.1461 0.0949 0.1279 0.0415 0.2089 0.0717 0.0764 0.0303 0.0929 0.0325 0.0340 0.0254 0.0520 0.0776 0.0451 0.0426 0.0577 0.0802 0.0546 0.0247 0.0470 0.1407 0.0264 0.1416 0.1564 0.2598 0.0562 0.1375 0.2643 0.0268 0.0462
0.1310 0.0409 0.0777 0.1429 0.1548 0.0355 0.0454 0.1248 0.0432 0.0246 0.0308 0.0253 0.0585 0.0617 0.0408 0.0607 0.0297 0.0721 0.0852 0.0285 0.0370 0.0905 0.1238 0.2280 0.0506 0.1643 0.1980 0.1811 0.1406 0.0907 0.1210 0.0394 0.1971 0.0694 0.0692 0.0290 0.0885 0.0306 0.0313 0.0240 0.0493 0.0757 0.0427 0.0396 0.0555 0.0810 0.0558 0.0248 0.0457 0.1559 0.0254 0.1337 0.1488 0.2555 0.0547 0.1339 0.2577 0.0259 0.0441
0.1281 0.0392 0.0724 0.1443 0.1519 0.0342 0.0435 0.1273 0.0409 0.0229 0.0292 0.0245 0.0549 0.0587 0.0385 0.0568 0.0294 0.0665 0.0768 0.0262 0.0362 0.0846 0.1215 0.2231 0.0497 0.1645 0.1976 0.1721 0.1341 0.0862 0.1252 0.0370 0.1815 0.0678 0.0699 0.0277 0.0873 0.0296 0.0300 0.0221 0.0469 0.0698 0.0413 0.0378 0.0516 0.0737 0.0523 0.0234 0.0436 0.1407 0.0241 0.1362 0.1440 0.2566 0.0508 0.1338 0.2346 0.0249 0.0435
0.1170 0.0386 0.0658 0.1396 0.1543 0.0332 0.0410 0.1280 0.0414 0.0218 0.0277 0.0230 0.0540 0.0546 0.0380 0.0571 0.0276 0.0626 0.0748 0.0252 0.0345 0.0825 0.1162 0.2057 0.0488 0.1582 0.1929 0.1717 0.1269 0.0781 0.1123 0.0367 0.1780 0.0669 0.0624 0.0267 0.0857 0.0294 0.0285 0.0213 0.0456 0.0660 0.0388 0.0385 0.0508 0.0741 0.0497 0.0219 0.0431 0.1338 0.0236 0.1280 0.1351 0.2533 0.0484 0.1295 0.2370 0.0240 0.0413
0.1222 0.0378 0.0720 0.1284 0.1488 0.0306 0.0409 0.1132 0.0412 0.0213 0.0264 0.0223 0.0532 0.0532 0.0357 0.0546 0.0260 0.0626 0.0724 0.0251 0.0325 0.0757 0.1125 0.2101 0.0469 0.1417 0.1712 0.1652 0.1225 0.0803 0.1138 0.0351 0.1782 0.0629 0.0645 0.0247 0.0874 0.0281 0.0265 0.0212 0.0439 0.0658 0.0382 0.0355 0.0482 0.0715 0.0482 0.0213 0.0404 0.1275 0.0228 0.1187 0.1343 0.2259 0.0485 0.1203 0.2232 0.0229 0.0395
0.1188 0.0362 0.0719 0.1272 0.1460 0.0303 0.0388 0.1115 0.0379 0.0198 0.0253 0.0215 0.0502 0.0504 0.0350 0.0529 0.0247 0.0584 0.0725 0.0240 0.0320 0.0742 0.1023 0.2108 0.0458 0.1557 0.1655 0.1657 0.1261 0.0797 0.1099 0.0333 0.1821 0.0628 0.0651 0.0240 0.0803 0.0270 0.0265 0.0200 0.0404 0.0605 0.0361 0.0332 0.0466 0.0659 0.0443 0.0200 0.0380 0.1290 0.0222 0.1271 0.1235 0.2389 0.0462 0.1239 0.2131 0.0217 0.0386
0.1091 0.0344 0.0675 0.1271 0.1518 0.0292 0.0387 0.1039 0.0377 0.0189 0.0239 0.0205 0.0482 0.0488 0.0330 0.0488 0.0238 0.0557 0.0712 0.0223 0.0307 0.0725 0.1009 0.1918 0.0407 0.1298 0.1606 0.1522 0.1186 0.0755 0.1016 0.0319 0.1760 0.0605 0.0615 0.0240 0.0854 0.0251 0.0244 0.0188 0.0401 0.0596 0.0352 0.0322 0.0433 0.0632 0.0437 0.0189 0.0364 0.1250 0.0200 0.1051 0.1283 0.2119 0.0414 0.1109 0.2083 0.0206 0.0372
0.1049 0.0319 0.0669 0.1125 0.1403 0.0274 0.0351 0.0947 0.0358 0.0184 0.0228 0.0196 0.0476 0.0464 0.0309 0.0462 0.0224 0.0567 0.0713 0.0219 0.0292 0.0704 0.0962 0.1842 0.0399 0.1391 0.1464 0.1500 0.1099 0.0722 0.1003 0.0294 0.1697 0.0559 0.0572 0.0217 0.0782 0.0239 0.0236 0.0176 0.0382 0.0578 0.0337 0.0308 0.0404 0.0628 0.0438 0.0187 0.0359 0.1151 0.0195 0.1053 0.1179 0.2175 0.0405 0.1152 0.2004 0.0191 0.0347
0.1021 0.0312 0.0666 0.1090 0.1322 0.0261 0.0360 0.0928 0.0325 0.0174 0.0216 0.0181 0.0454 0.0425 0.0288 0.0428 0.0212 0.0525 0.0714 0.0210 0.0276 0.0648 0.0934 0.1725 0.0389 0.1315 0.1433 0.1486 0.1053 0.0714 0.0943 0.0300 0.1655 0.0527 0.0551 0.0213 0.0735 0.0227 0.0225 0.0170 0.0359 0.0554 0.0308 0.0300 0.0390 0.0569 0.0405 0.0178 0.0351 0.1220 0.0184 0.1002 0.1169 0.1928 0.0423 0.1092 0.1999 0.0188 0.0328
0.0972 0.0308 0.0662 0.0988 0.1207 0.0249 0.0317 0.0873 0.0316 0.0164 0.0210 0.0177 0.0411 0.0399 0.0276 0.0431 0.0202 0.0495 0.0593 0.0196 0.0257 0.0593 0.0877 0.1694 0.0367 0.1218 0.1347 0.1411 0.0988 0.0672 0.0905 0.0279 0.1567 0.0488 0.0519 0.0199 0.0694 0.0209 0.0217 0.0168 0.0330 0.0489 0.0298 0.0278 0.0384 0.0574 0.0382 0.0165 0.0323 0.1037 0.0182 0.0961 0.1080 0.1943 0.0372 0.1033 0.1832 0.0174 0.0310
0.0954 0.0295 0.0602 0.1042 0.1124 0.0235 0.0297 0.0847 0.0305 0.0157 0.0198 0.0166 0.0411 0.0391 0.0266 0.0388 0.0206 0.0440 0.0538 0.0184 0.0252 0.0611 0.0777 0.1517 0.0333 0.1143 0.1259 0.1317 0.1043 0.0679 0.0832 0.0272 0.1533 0.0471 0.0483 0.0186 0.0613 0.0205 0.0202 0.0162 0.0325 0.0489 0.0281 0.0256 0.0350 0.0499 0.0364 0.0157 0.0302 0.0961 0.0164 0.0928 0.1003 0.1704 0.0351 0.0984 0.1659 0.0169 0.0303
0.0919 0.0284 0.0593 0.0938 0.1132 0.0235 0.0296 0.0786 0.0311 0.0149 0.0187 0.0156 0.0390 0.0368 0.0248 0.0379 0.0197 0.0466 0.0519 0.0174 0.0247 0.0588 0.0778 0.1528 0.0330 0.1087 0.1187 0.1254 0.0979 0.0665 0.0826 0.0257 0.1450 0.0438 0.0492 0.0180 0.0700 0.0194 0.0181 0.0146 0.0306 0.0466 0.0263 0.0245 0.0341 0.0516 0.0361 0.0156 0.0279 0.1009 0.0158 0.0948 0.0996 0.1523 0.0350 0.0916 0.1569 0.0158 0.0296
0.0818 0.0256 0.0590 0.0867 0.1106 0.0205 0.0274 0.0748 0.0270 0.0139 0.0178 0.0147 0.0345 0.0354 0.0231 0.0345 0.0178 0.0419 0.0518 0.0167 0.0231 0.0581 0.0744 0.1355 0.0306 0.1044 0.1195 0.1137 0.0898 0.0579 0.0733 0.0229 0.1424 0.0452 0.0472 0.0163 0.0591 0.0192 0.0179 0.0141 0.0272 0.0429 0.0251 0.0232 0.0312 0.0467 0.0321 0.0146 0.0274 0.0943 0.0152 0.0868 0.0924 0.1529 0.0335 0.0853 0.1502 0.0151 0.0267
0.0811 0.0240 0.0547 0.0829 0.0917 0.0188 0.0234 0.0688 0.0225 0.0126 0.0157 0.0133 0.0316 0.0316 0.0217 0.0330 0.0158 0.0376 0.0453 0.0150 0.0209 0.0481 0.0728 0.1306 0.0282 0.0973 0.1083 0.1098 0.0841 0.0583 0.0728 0.0213 0.1315 0.0379 0.0405 0.0146 0.0465 0.0163 0.0167 0.0124 0.0255 0.0386 0.0226 0.0213 0.0294 0.0442 0.0302 0.0127 0.0242 0.0815 0.0140 0.0767 0.0862 0.1426 0.0319 0.0820 0.1451 0.0139 0.0257
0.0760 0.0224 0.0506 0.0724 0.0928 0.0180 0.0219 0.0642 0.0235 0.0118 0.0140 0.0124 0.0306 0.0289 0.0198 0.0290 0.0145 0.0350 0.0406 0.0137 0.0192 0.0417 0.0626 0.1219 0.0249 0.0856 0.0958 0.1005 0.0777 0.0548 0.0660 0.0196 0.1218 0.0348 0.0363 0.0148 0.0514 0.0156 0.0148 0.0114 0.0243 0.0363 0.0203 0.0185 0.0259 0.0389 0.0265 0.0116 0.0222 0.0741 0.0127 0.0681 0.0728 0.1288 0.0267 0.0730 0.1318 0.0125 0.0229
0.0650 0.0193 0.0452 0.0631 0.0829 0.0154 0.0192 0.0554 0.0196 0.0099 0.0122 0.0108 0.0267 0.0248 0.0170 0.0257 0.0126 0.0290 0.0352 0.0118 0.0171 0.0411 0.0549 0.1037 0.0224 0.0756 0.0858 0.0879 0.0676 0.0470 0.0566 0.0170 0.1101 0.0322 0.0315 0.0122 0.0464 0.0131 0.0128 0.0098 0.0207 0.0311 0.0180 0.0168 0.0232 0.0330 0.0224 0.0100 0.0194 0.0649 0.0112 0.0638 0.0714 0.1132 0.0233 0.0640 0.1155 0.0111 0.0203
0.0530 0.0158 0.0358 0.0573 0.0663 0.0129 0.0161 0.0464 0.0158 0.0083 0.0103 0.0087 0.0209 0.0205 0.0140 0.0210 0.0104 0.0248 0.0315 0.0100 0.0139 0.0339 0.0443 0.0879 0.0191 0.0636 0.0677 0.0746 0.0553 0.0375 0.0481 0.0141 0.0886 0.0254 0.0280 0.0102 0.0361 0.0110 0.0106 0.0080 0.0163 0.0248 0.0145 0.0137 0.0189 0.0280 0.0193 0.0085 0.0162 0.0592 0.0090 0.0550 0.0564 0.0914 0.0200 0.0544 0.0974 0.0090 0.0171
0.0348 0.0109 0.0240 0.0375 0.0411 0.0092 0.0125 0.0319 0.0112 0.0058 0.0073 0.0062 0.0140 0.0143 0.0098 0.0151 0.0077 0.0177 0.0219 0.0070 0.0099 0.0232 0.0326 0.0600 0.0145 0.0456 0.0524 0.0504 0.0359 0.0259 0.0334 0.0101 0.0554 0.0185 0.0183 0.0070 0.0223 0.0081 0.0076 0.0058 0.0118 0.0170 0.0105 0.0096 0.0135 0.0199 0.0143 0.0061 0.0115 0.0391 0.0066 0.0390 0.0423 0.0653 0.0146 0.0381 0.0704 0.0064 0.0119
0.0222 0.0064 0.0134 0.0235 0.0281 0.0054 0.0071 0.0195 0.0069 0.0035 0.0043 0.0036 0.0087 0.0083 0.0058 0.0090 0.0044 0.0099 0.0118 0.0041 0.0058 0.0137 0.0205 0.0374 0.0082 0.0279 0.0289 0.0293 0.0226 0.0150 0.0206 0.0060 0.0338 0.0111 0.0118 0.0042 0.0160 0.0046 0.0045 0.0034 0.0070 0.0103 0.0061 0.0057 0.0078 0.0116 0.0080 0.0035 0.0070 0.0226 0.0039 0.0231 0.0250 0.0388 0.0083 0.0230 0.0401 0.0037 0.0073
0.0098 0.0028 0.0057 0.0095 0.0112 0.0024 0.0030 0.0074 0.0027 0.0015 0.0019 0.0016 0.0035 0.0036 0.0025 0.0040 0.0019 0.0045 0.0056 0.0018 0.0025 0.0062 0.0087 0.0165 0.0034 0.0119 0.0124 0.0133 0.0095 0.0066 0.0091 0.0026 0.0141 0.0046 0.0047 0.0018 0.0060 0.0020 0.0019 0.0015 0.0029 0.0044 0.0026 0.0025 0.0036 0.0051 0.0035 0.0015 0.0031 0.0106 0.0017 0.0102 0.0114 0.0170 0.0035 0.0098 0.0190 0.0017 0.0032
0.0030 0.0009 0.0019 0.0030 0.0039 0.0007 0.0009 0.0023 0.0009 0.0005 0.0006 0.0005 0.0012 0.0011 0.0008 0.0012 0.0006 0.0015 0.0019 0.0006 0.0008 0.0021 0.0029 0.0049 0.0011 0.0037 0.0040 0.0040 0.0032 0.0020 0.0029 0.0008 0.0047 0.0014 0.0016 0.0006 0.0022 0.0006 0.0006 0.0004 0.0009 0.0014 0.0008 0.0008 0.0011 0.0016 0.0012 0.0005 0.0009 0.0035 0.0005 0.0031 0.0037 0.0055 0.0011 0.0030 0.0060 0.0005 0.0010
0.0007 0.0002 0.0004 0.0006 0.0008 0.0002 0.0002 0.0005 0.0002 0.0001 0.0001 0.0001 0.0003 0.0003 0.0002 0.0003 0.0001 0.0003 0.0004 0.0001 0.0002 0.0005 0.0006 0.0012 0.0003 0.0009 0.0009 0.0009 0.0007 0.0005 0.0007 0.0002 0.0010 0.0003 0.0003 0.0001 0.0004 0.0001 0.0001 0.0001 0.0002 0.0003 0.0002 0.0002 0.0002 0.0004 0.0002 0.0001 0.0002 0.0008 0.0001 0.0008 0.0008 0.0013 0.0003 0.0007 0.0014 0.0001 0.0002
0.0001 0.0000 0.0001 0.0001 0.0001 0.0000 0.0001 0.0001 0.0000 0.0000 0.0000 0.0000 0.0001 0.0001 0.0000 0.0001 0.0000 0.0001 0.0001 0.0000 0.0000 0.0001 0.0001 0.0002 0.0001 0.0002 0.0002 0.0002 0.0001 0.0001 0.0001 0.0000 0.0002 0.0001 0.0001 0.0000 0.0001 0.0000 0.0000 0.0000 0.0000 0.0001 0.0000 0.0000 0.0001 0.0001 0.0001 0.0000 0.0000 0.0002 0.0000 0.0002 0.0002 0.0003 0.0001 0.0001 0.0003 0.0000 0.0000
0.0001 0.0000 0.0000 0.0000 0.0001 0.0000 0.0000 0.0000 0.0000 0.0000 0.0000 0.0000 0.0000 0.0000 0.0000 0.0000 0.0000 0.0000 0.0000 0.0000 0.0000 0.0000 0.0001 0.0001 0.0000 0.0001 0.0001 0.0001 0.0000 0.0000 0.0001 0.0000 0.0001 0.0000 0.0000 0.0000 0.0000 0.0000 0.0000 0.0000 0.0000 0.0000 0.0000 0.0000 0.0000 0.0000 0.0000 0.0000 0.0000 0.0001 0.0000 0.0001 0.0001 0.0001 0.0000 0.0001 0.0002 0.0000 0.0000
0.0001 0.0000 0.0000 0.0000 0.0000 0.0000 0.0000 0.0000 0.0000 0.0000 0.0000 0.0000 0.0000 0.0000 0.0000 0.0000 0.0000 0.0000 0.0000 0.0000 0.0000 0.0000 0.0001 0.0001 0.0000 0.0001 0.0001 0.0001 0.0000 0.0000 0.0001 0.0000 0.0000 0.0000 0.0000 0.0000 0.0000 0.0000 0.0000 0.0000 0.0000 0.0000 0.0000 0.0000 0.0000 0.0000 0.0000 0.0000 0.0000 0.0000 0.0000 0.0001 0.0001 0.0001 0.0000 0.0000 0.0002 0.0000 0.0000
0.0001 0.0000 0.0000 0.0000 0.0000 0.0000 0.0000 0.0000 0.0000 0.0000 0.0000 0.0000 0.0000 0.0000 0.0000 0.0000 0.0000 0.0000 0.0000 0.0000 0.0000 0.0000 0.0001 0.0001 0.0000 0.0000 0.0000 0.0001 0.0000 0.0000 0.0001 0.0000 0.0000 0.0000 0.0000 0.0000 0.0000 0.0000 0.0000 0.0000 0.0000 0.0000 0.0000 0.0000 0.0000 0.0000 0.0000 0.0000 0.0000 0.0000 0.0000 0.0001 0.0002 0.0001 0.0000 0.0000 0.0003 0.0000 0.0000
0.0001 0.0000 0.0000 0.0000 0.0000 0.0000 0.0000 0.0000 0.0000 0.0000 0.0000 0.0000 0.0000 0.0000 0.0000 0.0000 0.0000 0.0000 0.0000 0.0000 0.0000 0.0000 0.0001 0.0001 0.0000 0.0000 0.0000 0.0000 0.0000 0.0000 0.0001 0.0000 0.0000 0.0000 0.0000 0.0000 0.0000 0.0000 0.0000 0.0000 0.0000 0.0000 0.0000 0.0000 0.0000 0.0000 0.0000 0.0000 0.0000 0.0000 0.0000 0.0001 0.0002 0.0001 0.0000 0.0000 0.0003 0.0000 0.0000
0.0001 0.0000 0.0000 0.0000 0.0000 0.0000 0.0000 0.0000 0.0000 0.0000 0.0000 0.0000 0.0000 0.0000 0.0000 0.0000 0.0000 0.0000 0.0000 0.0000 0.0000 0.0000 0.0001 0.0001 0.0000 0.0000 0.0000 0.0000 0.0000 0.0000 0.0001 0.0000 0.0000 0.0000 0.0000 0.0000 0.0000 0.0000 0.0000 0.0000 0.0000 0.0000 0.0000 0.0000 0.0000 0.0000 0.0000 0.0000 0.0000 0.0000 0.0000 0.0001 0.0002 0.0001 0.0000 0.0000 0.0003 0.0000 0.0000
0.0001 0.0000 0.0000 0.0000 0.0000 0.0000 0.0000 0.0000 0.0000 0.0000 0.0000 0.0000 0.0000 0.0000 0.0000 0.0000 0.0000 0.0000 0.0000 0.0000 0.0000 0.0000 0.0001 0.0001 0.0000 0.0000 0.0000 0.0000 0.0000 0.0000 0.0001 0.0000 0.0000 0.0000 0.0000 0.0000 0.0000 0.0000 0.0000 0.0000 0.0000 0.0000 0.0000 0.0000 0.0000 0.0000 0.0000 0.0000 0.0000 0.0000 0.0000 0.0001 0.0002 0.0000 0.0000 0.0000 0.0003 0.0000 0.0000
0.0001 0.0000 0.0000 0.0000 0.0000 0.0000 0.0000 0.0000 0.0000 0.0000 0.0000 0.0000 0.0000 0.0000 0.0000 0.0000 0.0000 0.0000 0.0000 0.0000 0.0000 0.0000 0.0001 0.0001 0.0000 0.0000 0.0000 0.0000 0.0000 0.0000 0.0001 0.0000 0.0000 0.0000 0.0000 0.0000 0.0000 0.0000 0.0000 0.0000 0.0000 0.0000 0.0000 0.0000 0.0000 0.0000 0.0000 0.0000 0.0000 0.0000 0.0000 0.0001 0.0002 0.0000 0.0000 0.0000 0.0003 0.0000 0.0000
0.0001 0.0000 0.0000 0.0000 0.0000 0.0000 0.0000 0.0000 0.0000 0.0000 0.0000 0.0000 0.0000 0.0000 0.0000 0.0000 0.0000 0.0000 0.0000 0.0000 0.0000 0.0000 0.0001 0.0001 0.0000 0.0000 0.0000 0.0000 0.0000 0.0000 0.0001 0.0000 0.0000 0.0000 0.0000 0.0000 0.0000 0.0000 0.0000 0.0000 0.0000 0.0000 0.0000 0.0000 0.0000 0.0000 0.0000 0.0000 0.0000 0.0000 0.0000 0.0001 0.0002 0.0001 0.0000 0.0000 0.0003 0.0000 0.0000
0.0001 0.0000 0.0000 0.0000 0.0000 0.0000 0.0000 0.0000 0.0000 0.0000 0.0000 0.0000 0.0000 0.0000 0.0000 0.0000 0.0000 0.0000 0.0000 0.0000 0.0000 0.0000 0.0001 0.0001 0.0000 0.0000 0.0000 0.0000 0.0000 0.0000 0.0001 0.0000 0.0000 0.0000 0.0000 0.0000 0.0000 0.0000 0.0000 0.0000 0.0000 0.0000 0.0000 0.0000 0.0000 0.0000 0.0000 0.0000 0.0000 0.0000 0.0000 0.0001 0.0002 0.0001 0.0000 0.0000 0.0003 0.0000 0.0000
0.0001 0.0000 0.0000 0.0000 0.0000 0.0000 0.0000 0.0000 0.0000 0.0000 0.0000 0.0000 0.0000 0.0000 0.0000 0.0000 0.0000 0.0000 0.0000 0.0000 0.0000 0.0000 0.0001 0.0001 0.0000 0.0000 0.0000 0.0001 0.0000 0.0000 0.0001 0.0000 0.0000 0.0000 0.0000 0.0000 0.0000 0.0000 0.0000 0.0000 0.0000 0.0000 0.0000 0.0000 0.0000 0.0000 0.0000 0.0000 0.0000 0.0000 0.0000 0.0001 0.0002 0.0001 0.0000 0.0000 0.0003 0.0000 0.0000
0.0001 0.0000 0.0000 0.0000 0.0000 0.0000 0.0000 0.0000 0.0000 0.0000 0.0000 0.0000 0.0000 0.0000 0.0000 0.0000 0.0000 0.0000 0.0000 0.0000 0.0000 0.0000 0.0001 0.0001 0.0000 0.0001 0.0000 0.0001 0.0000 0.0000 0.0001 0.0000 0.0000 0.0000 0.0000 0.0000 0.0000 0.0000 0.0000 0.0000 0.0000 0.0000 0.0000 0.0000 0.0000 0.0000 0.0000 0.0000 0.0000 0.0000 0.0000 0.0001 0.0002 0.0001 0.0000 0.0000 0.0003 0.0000 0.0000
0.0001 0.0000 0.0000 0.0000 0.0000 0.0000 0.0000 0.0000 0.0000 0.0000 0.0000 0.0000 0.0000 0.0000 0.0000 0.0000 0.0000 0.0000 0.0000 0.0000 0.0000 0.0000 0.0001 0.0001 0.0000 0.0001 0.0001 0.0001 0.0000 0.0000 0.0001 0.0000 0.0000 0.0000 0.0000 0.0000 0.0000 0.0000 0.0000 0.0000 0.0000 0.0000 0.0000 0.0000 0.0000 0.0000 0.0000 0.0000 0.0000 0.0001 0.0000 0.0001 0.0002 0.0001 0.0000 0.0000 0.0003 0.0000 0.0000
0.0001 0.0000 0.0000 0.0000 0.0001 0.0000 0.0000 0.0000 0.0000 0.0000 0.0000 0.0000 0.0000 0.0000 0.0000 0.0000 0.0000 0.0000 0.0000 0.0000 0.0000 0.0000 0.0001 0.0001 0.0000 0.0001 0.0001 0.0001 0.0000 0.0000 0.0001 0.0000 0.0001 0.0000 0.0000 0.0000 0.0000 0.0000 0.0000 0.0000 0.0000 0.0000 0.0000 0.0000 0.0000 0.0000 0.0000 0.0000 0.0000 0.0001 0.0000 0.0001 0.0001 0.0001 0.0000 0.0001 0.0002 0.0000 0.0000
0.0001 0.0000 0.0000 0.0001 0.0001 0.0000 0.0000 0.0000 0.0000 0.0000 0.0000 0.0000 0.0000 0.0000 0.0000 0.0000 0.0000 0.0000 0.0000 0.0000 0.0000 0.0000 0.0001 0.0001 0.0000 0.0001 0.0001 0.0001 0.0001 0.0000 0.0001 0.0000 0.0001 0.0000 0.0000 0.0000 0.0000 0.0000 0.0000 0.0000 0.0000 0.0000 0.0000 0.0000 0.0000 0.0000 0.0000 0.0000 0.0000 0.0001 0.0000 0.0001 0.0001 0.0001 0.0000 0.0001 0.0002 0.0000 0.0000
0.0001 0.0000 0.0001 0.0001 0.0001 0.0000 0.0000 0.0001 0.0000 0.0000 0.0000 0.0000 0.0000 0.0000 0.0000 0.0000 0.0000 0.0001 0.0001 0.0000 0.0000 0.0001 0.0001 0.0002 0.0001 0.0002 0.0002 0.0002 0.0001 0.0001 0.0001 0.0000 0.0002 0.0001 0.0001 0.0000 0.0001 0.0000 0.0000 0.0000 0.0000 0.0001 0.0000 0.0000 0.0000 0.0001 0.0000 0.0000 0.0000 0.0001 0.0000 0.0001 0.0002 0.0002 0.0001 0.0001 0.0003 0.0000 0.0000
0.0004 0.0001 0.0002 0.0004 0.0004 0.0001 0.0001 0.0003 0.0001 0.0001 0.0001 0.0001 0.0001 0.0001 0.0001 0.0001 0.0001 0.0002 0.0002 0.0001 0.0001 0.0003 0.0004 0.0006 0.0001 0.0004 0.0005 0.0005 0.0004 0.0003 0.0005 0.0001 0.0006 0.0002 0.0002 0.0001 0.0002 0.0001 0.0001 0.0001 0.0001 0.0002 0.0001 0.0001 0.0001 0.0002 0.0001 0.0001 0.0001 0.0004 0.0001 0.0004 0.0006 0.0006 0.0001 0.0004 0.0011 0.0001 0.0002
0.0015 0.0004 0.0008 0.0014 0.0017 0.0003 0.0004 0.0009 0.0004 0.0002 0.0002 0.0002 0.0005 0.0005 0.0003 0.0005 0.0002 0.0005 0.0007 0.0002 0.0003 0.0009 0.0014 0.0022 0.0005 0.0016 0.0016 0.0018 0.0014 0.0009 0.0017 0.0004 0.0022 0.0006 0.0006 0.0003 0.0009 0.0003 0.0003 0.0002 0.0004 0.0006 0.0003 0.0003 0.0005 0.0006 0.0004 0.0002 0.0004 0.0012 0.0002 0.0015 0.0022 0.0022 0.0005 0.0014 0.0037 0.0002 0.0006
0.0036 0.0010 0.0020 0.0038 0.0046 0.0008 0.0010 0.0024 0.0010 0.0005 0.0006 0.0005 0.0013 0.0012 0.0008 0.0012 0.0006 0.0016 0.0017 0.0006 0.0008 0.0022 0.0035 0.0063 0.0013 0.0041 0.0041 0.0048 0.0036 0.0021 0.0039 0.0009 0.0055 0.0017 0.0017 0.0007 0.0024 0.0007 0.0007 0.0005 0.0010 0.0015 0.0008 0.0008 0.0012 0.0016 0.0011 0.0005 0.0011 0.0037 0.0006 0.0039 0.0052 0.0058 0.0012 0.0035 0.0088 0.0006 0.0013
0.0070 0.0019 0.0038 0.0070 0.0088 0.0016 0.0020 0.0053 0.0019 0.0010 0.0011 0.0010 0.0024 0.0023 0.0016 0.0024 0.0013 0.0030 0.0035 0.0012 0.0016 0.0045 0.0064 0.0114 0.0026 0.0088 0.0086 0.0094 0.0069 0.0042 0.0072 0.0018 0.0104 0.0033 0.0033 0.0013 0.0049 0.0013 0.0013 0.0009 0.0019 0.0029 0.0017 0.0016 0.0023 0.0032 0.0023 0.0009 0.0021 0.0067 0.0012 0.0079 0.0097 0.0120 0.0025 0.0071 0.0160 0.0012 0.0025
0.0107 0.0029 0.0056 0.0110 0.0139 0.0025 0.0032 0.0080 0.0030 0.0014 0.0018 0.0016 0.0039 0.0035 0.0025 0.0038 0.0019 0.0047 0.0058 0.0018 0.0026 0.0068 0.0097 0.0178 0.0036 0.0127 0.0133 0.0142 0.0110 0.0064 0.0106 0.0027 0.0161 0.0049 0.0052 0.0019 0.0074 0.0020 0.0020 0.0014 0.0030 0.0046 0.0025 0.0024 0.0034 0.0051 0.0035 0.0015 0.0033 0.0115 0.0017 0.0107 0.0133 0.0181 0.0037 0.0106 0.0215 0.0018 0.0036
0.0138 0.0036 0.0077 0.0142 0.0173 0.0030 0.0040 0.0097 0.0037 0.0018 0.0023 0.0019 0.0051 0.0043 0.0030 0.0048 0.0022 0.0062 0.0073 0.0022 0.0031 0.0080 0.0114 0.0218 0.0046 0.0158 0.0168 0.0187 0.0138 0.0085 0.0131 0.0034 0.0212 0.0058 0.0069 0.0024 0.0093 0.0023 0.0025 0.0018 0.0038 0.0057 0.0031 0.0029 0.0042 0.0064 0.0046 0.0018 0.0038 0.0136 0.0022 0.0129 0.0158 0.0226 0.0046 0.0141 0.0278 0.0022 0.0044
0.0151 0.0040 0.0082 0.0141 0.0182 0.0032 0.0043 0.0111 0.0042 0.0021 0.0025 0.0021 0.0054 0.0048 0.0035 0.0053 0.0026 0.0067 0.0095 0.0025 0.0036 0.0100 0.0127 0.0226 0.0051 0.0174 0.0178 0.0209 0.0145 0.0095 0.0138 0.0037 0.0208 0.0066 0.0076 0.0025 0.0100 0.0027 0.0028 0.0020 0.0041 0.0062 0.0037 0.0034 0.0048 0.0069 0.0050 0.0021 0.0043 0.0177 0.0024 0.0158 0.0177 0.0224 0.0052 0.0152 0.0289 0.0024 0.0048
0.0155 0.0042 0.0087 0.0157 0.0210 0.0032 0.0044 0.0110 0.0042 0.0022 0.0026 0.0023 0.0057 0.0052 0.0035 0.0053 0.0026 0.0066 0.0082 0.0026 0.0037 0.0094 0.0129 0.0238 0.0054 0.0188 0.0180 0.0215 0.0152 0.0097 0.0142 0.0038 0.0231 0.0068 0.0082 0.0026 0.0114 0.0027 0.0027 0.0020 0.0042 0.0067 0.0038 0.0036 0.0048 0.0070 0.0048 0.0021 0.0042 0.0164 0.0025 0.0157 0.0170 0.0256 0.0052 0.0166 0.0286 0.0023 0.0048
0.0156 0.0040 0.0088 0.0159 0.0176 0.0033 0.0044 0.0118 0.0041 0.0021 0.0025 0.0022 0.0055 0.0051 0.0034 0.0051 0.0026 0.0065 0.0073 0.0025 0.0035 0.0087 0.0121 0.0223 0.0050 0.0168 0.0189 0.0202 0.0148 0.0099 0.0134 0.0037 0.0213 0.0068 0.0076 0.0026 0.0101 0.0027 0.0028 0.0021 0.0043 0.0066 0.0038 0.0034 0.0047 0.0069 0.0049 0.0020 0.0041 0.0134 0.0023 0.0131 0.0159 0.0250 0.0052 0.0147 0.0276 0.0023 0.0049
0.0152 0.0043 0.0086 0.0166 0.0182 0.0034 0.0043 0.0117 0.0040 0.0021 0.0025 0.0021 0.0053 0.0050 0.0033 0.0050 0.0027 0.0062 0.0082 0.0024 0.0037 0.0095 0.0115 0.0229 0.0052 0.0171 0.0177 0.0205 0.0160 0.0099 0.0128 0.0039 0.0237 0.0069 0.0072 0.0026 0.0094 0.0027 0.0027 0.0020 0.0041 0.0063 0.0037 0.0033 0.0046 0.0067 0.0048 0.0021 0.0044 0.0157 0.0024 0.0143 0.0158 0.0246 0.0052 0.0148 0.0264 0.0023 0.0047
0.0141 0.0038 0.0082 0.0154 0.0168 0.0031 0.0041 0.0108 0.0041 0.0019 0.0024 0.0020 0.0052 0.0047 0.0031 0.0049 0.0024 0.0060 0.0076 0.0023 0.0035 0.0082 0.0108 0.0213 0.0049 0.0174 0.0174 0.0187 0.0148 0.0094 0.0122 0.0036 0.0214 0.0066 0.0070 0.0024 0.0090 0.0027 0.0025 0.0020 0.0040 0.0060 0.0035 0.0031 0.0044 0.0066 0.0046 0.0020 0.0040 0.0127 0.0023 0.0138 0.0144 0.0229 0.0049 0.0146 0.0244 0.0022 0.0045
0.0132 0.0035 0.0075 0.0143 0.0175 0.0030 0.0040 0.0106 0.0036 0.0019 0.0023 0.0019 0.0048 0.0044 0.0030 0.0047 0.0024 0.0058 0.0070 0.0023 0.0032 0.0083 0.0109 0.0219 0.0046 0.0152 0.0165 0.0169 0.0135 0.0088 0.0113 0.0034 0.0201 0.0061 0.0071 0.0023 0.0093 0.0025 0.0025 0.0018 0.0038 0.0058 0.0034 0.0031 0.0042 0.0063 0.0045 0.0019 0.0038 0.0141 0.0022 0.0124 0.0135 0.0216 0.0047 0.0131 0.0226 0.0021 0.0041
0.0128 0.0033 0.0076 0.0140 0.0158 0.0029 0.0040 0.0103 0.0036 0.0018 0.0022 0.0018 0.0047 0.0041 0.0029 0.0046 0.0022 0.0057 0.0071 0.0022 0.0031 0.0084 0.0107 0.0197 0.0042 0.0146 0.0163 0.0168 0.0131 0.0087 0.0110 0.0032 0.0195 0.0060 0.0063 0.0022 0.0082 0.0024 0.0023 0.0017 0.0038 0.0055 0.0031 0.0029 0.0042 0.0062 0.0044 0.0018 0.0036 0.0138 0.0021 0.0121 0.0132 0.0210 0.0043 0.0128 0.0211 0.0020 0.0039
0.0115 0.0034 0.0074 0.0123 0.0163 0.0028 0.0041 0.0086 0.0035 0.0017 0.0020 0.0017 0.0045 0.0040 0.0027 0.0042 0.0022 0.0054 0.0071 0.0021 0.0031 0.0076 0.0096 0.0195 0.0042 0.0155 0.0141 0.0168 0.0123 0.0076 0.0099 0.0031 0.0192 0.0056 0.0068 0.0021 0.0091 0.0022 0.0022 0.0016 0.0033 0.0052 0.0030 0.0028 0.0038 0.0058 0.0041 0.0018 0.0033 0.0133 0.0020 0.0123 0.0123 0.0205 0.0045 0.0125 0.0214 0.0019 0.0034
0.0117 0.0032 0.0066 0.0124 0.0156 0.0027 0.0036 0.0087 0.0035 0.0016 0.0020 0.0017 0.0045 0.0038 0.0026 0.0040 0.0020 0.0053 0.0066 0.0020 0.0028 0.0074 0.0088 0.0189 0.0038 0.0134 0.0139 0.0156 0.0120 0.0077 0.0098 0.0029 0.0183 0.0058 0.0058 0.0020 0.0086 0.0021 0.0020 0.0016 0.0033 0.0051 0.0028 0.0026 0.0036 0.0055 0.0038 0.0017 0.0032 0.0132 0.0019 0.0115 0.0115 0.0185 0.0040 0.0113 0.0190 0.0017 0.0034
0.0113 0.0031 0.0070 0.0118 0.0139 0.0025 0.0035 0.0083 0.0034 0.0015 0.0019 0.0016 0.0043 0.0036 0.0025 0.0037 0.0019 0.0048 0.0062 0.0019 0.0028 0.0071 0.0084 0.0184 0.0038 0.0133 0.0136 0.0149 0.0117 0.0073 0.0089 0.0029 0.0178 0.0052 0.0059 0.0019 0.0076 0.0020 0.0019 0.0015 0.0033 0.0049 0.0027 0.0024 0.0033 0.0050 0.0035 0.0015 0.0030 0.0126 0.0018 0.0108 0.0109 0.0190 0.0040 0.0114 0.0189 0.0017 0.0032
0.0102 0.0029 0.0064 0.0108 0.0134 0.0024 0.0031 0.0083 0.0030 0.0014 0.0017 0.0015 0.0041 0.0033 0.0022 0.0036 0.0018 0.0045 0.0057 0.0018 0.0025 0.0071 0.0082 0.0168 0.0035 0.0123 0.0127 0.0134 0.0110 0.0068 0.0085 0.0026 0.0167 0.0046 0.0052 0.0018 0.0070 0.0019 0.0019 0.0014 0.0032 0.0046 0.0025 0.0023 0.0032 0.0049 0.0034 0.0014 0.0029 0.0107 0.0017 0.0106 0.0105 0.0173 0.0036 0.0105 0.0168 0.0016 0.0031
0.0100 0.0027 0.0053 0.0106 0.0111 0.0023 0.0029 0.0076 0.0029 0.0014 0.0016 0.0014 0.0036 0.0032 0.0021 0.0033 0.0017 0.0043 0.0060 0.0016 0.0024 0.0063 0.0079 0.0154 0.0034 0.0119 0.0120 0.0132 0.0100 0.0063 0.0081 0.0025 0.0142 0.0044 0.0045 0.0017 0.0066 0.0018 0.0017 0.0013 0.0028 0.0042 0.0024 0.0022 0.0030 0.0045 0.0034 0.0014 0.0028 0.0097 0.0016 0.0102 0.0104 0.0162 0.0035 0.0097 0.0165 0.0015 0.0029
0.0100 0.0025 0.0055 0.0102 0.0117 0.0021 0.0028 0.0080 0.0027 0.0013 0.0016 0.0013 0.0036 0.0030 0.0021 0.0031 0.0016 0.0039 0.0051 0.0015 0.0022 0.0057 0.0077 0.0147 0.0030 0.0105 0.0113 0.0123 0.0098 0.0066 0.0080 0.0022 0.0146 0.0045 0.0045 0.0016 0.0063 0.0018 0.0016 0.0012 0.0028 0.0041 0.0022 0.0021 0.0029 0.0043 0.0031 0.0013 0.0026 0.0099 0.0015 0.0081 0.0094 0.0153 0.0031 0.0091 0.0152 0.0014 0.0027
0.0085 0.0023 0.0050 0.0096 0.0112 0.0019 0.0026 0.0070 0.0025 0.0012 0.0015 0.0012 0.0032 0.0027 0.0019 0.0029 0.0015 0.0037 0.0050 0.0015 0.0021 0.0058 0.0071 0.0137 0.0029 0.0103 0.0101 0.0114 0.0090 0.0056 0.0070 0.0022 0.0136 0.0042 0.0043 0.0015 0.0060 0.0016 0.0016 0.0012 0.0025 0.0037 0.0021 0.0019 0.0026 0.0040 0.0029 0.0012 0.0024 0.0099 0.0014 0.0081 0.0087 0.0148 0.0029 0.0088 0.0142 0.0013 0.0026
0.0082 0.0022 0.0048 0.0085 0.0094 0.0018 0.0026 0.0060 0.0024 0.0011 0.0014 0.0012 0.0029 0.0026 0.0018 0.0027 0.0014 0.0035 0.0044 0.0014 0.0019 0.0051 0.0062 0.0135 0.0028 0.0101 0.0102 0.0109 0.0085 0.0053 0.0066 0.0021 0.0122 0.0037 0.0039 0.0014 0.0057 0.0015 0.0014 0.0011 0.0023 0.0033 0.0019 0.0018 0.0025 0.0038 0.0027 0.0011 0.0023 0.0090 0.0013 0.0086 0.0082 0.0137 0.0029 0.0083 0.0136 0.0013 0.0024
0.0074 0.0021 0.0044 0.0082 0.0093 0.0017 0.0025 0.0062 0.0021 0.0010 0.0013 0.0011 0.0028 0.0024 0.0017 0.0026 0.0014 0.0036 0.0044 0.0013 0.0019 0.0051 0.0063 0.0123 0.0026 0.0094 0.0096 0.0104 0.0076 0.0048 0.0063 0.0020 0.0112 0.0036 0.0040 0.0013 0.0056 0.0013 0.0014 0.0010 0.0022 0.0033 0.0019 0.0017 0.0024 0.0039 0.0027 0.0011 0.0022 0.0083 0.0013 0.0073 0.0077 0.0140 0.0027 0.0079 0.0130 0.0012 0.0023
0.0075 0.0020 0.0042 0.0072 0.0087 0.0016 0.0023 0.0053 0.0022 0.0010 0.0012 0.0011 0.0025 0.0023 0.0016 0.0025 0.0013 0.0033 0.0044 0.0012 0.0018 0.0050 0.0057 0.0116 0.0024 0.0090 0.0090 0.0101 0.0075 0.0047 0.0061 0.0018 0.0107 0.0034 0.0035 0.0012 0.0053 0.0013 0.0013 0.0010 0.0019 0.0028 0.0018 0.0016 0.0022 0.0035 0.0024 0.0010 0.0020 0.0085 0.0012 0.0074 0.0073 0.0120 0.0025 0.0076 0.0115 0.0011 0.0021
0.0070 0.0020 0.0044 0.0073 0.0099 0.0016 0.0021 0.0050 0.0018 0.0010 0.0012 0.0010 0.0025 0.0022 0.0016 0.0023 0.0012 0.0031 0.0039 0.0011 0.0017 0.0043 0.0053 0.0115 0.0023 0.0083 0.0078 0.0097 0.0077 0.0046 0.0054 0.0018 0.0117 0.0034 0.0036 0.0012 0.0048 0.0013 0.0012 0.0009 0.0019 0.0030 0.0017 0.0015 0.0021 0.0032 0.0023 0.0010 0.0019 0.0075 0.0011 0.0070 0.0068 0.0117 0.0023 0.0073 0.0116 0.0011 0.0020
