Fp1 Fz F3 F7 FC5 FC1 C3 T7 CP5 CP1 Pz P3 P7 O1 Oz O2 P4 P8 CP6 CP2 FCz C4 T8 FC6 FC2 F4 F8 Fp2 AF7 AF3 Fpz F1 F5 FT7 FC3 C1 C5 CP3 CPz P1 P5 PO7 PO3 POz PO4 PO8 P6 P2 CP4 C6 C2 FC4 FT8 F6 F2 AF4 AF8 Cz AFz
5.3816 10.9432 8.1401 16.2136 9.6368 2.1032 2.0514 14.8926 1.5096 2.4986 1.3928 0.9885 3.3808 3.2550 2.6170 2.0770 35.6116 2.7333 1.6162 1.8414 2.2364 3.0098 3.8934 1.5606 2.0661 2.5176 3.1658 11.2513 25.9995 6.2368 30.2881 7.4123 20.7984 18.1934 2.6499 1.2241 4.4703 1.2607 2.6009 2.1517 1.3507 2.4853 2.0374 1.0218 4.8834 3.4341 8.1574 16.7808 2.6908 1.7716 2.3314 1.6425 2.3238 2.4806 4.8789 6.6138 4.5050 2.1736 4.4210
57.0448 116.3584 176.6227 393.3535 78.1436 39.0239 41.9682 113.5126 14.7953 17.6398 13.4802 10.3676 48.5846 33.2633 28.6846 22.5231 242.9269 44.4196 18.4700 17.6410 27.6039 28.7740 86.0551 33.2537 24.7139 30.1095 59.2575 96.5055 319.8771 66.5997 231.9185 123.9545 568.5944 124.2110 30.0638 19.5408 52.6587 11.0612 32.5478 16.7238 18.3909 28.6944 21.2704 12.0588 35.0215 53.6193 83.8684 112.9457 24.3396 26.8475 23.4643 26.1688 27.3085 40.5337 45.8023 99.1544 76.2809 26.5179 38.9433
1121.1134 1453.2344 2804.7590 5748.3550 896.4986 795.3729 726.9866 963.9727 402.4086 373.6512 435.4508 216.3779 626.0970 453.8640 374.4400 418.5423 1008.6699 792.8126 473.3488 412.2346 673.3504 440.4587 1119.3092 537.5122 712.8744 571.5135 873.4561 1426.7965 3733.2603 1280.9552 1391.7122 2180.5193 7682.4629 1033.3154 624.8083 456.5115 681.0811 337.0712 802.5376 291.5410 404.5261 530.9782 286.6160 307.0020 381.1528 985.3644 826.8741 581.4589 497.3314 460.3643 490.9573 505.3105 618.6022 586.5414 752.6775 1775.3748 1039.5739 642.4321 830.6622
2815.7532 2490.2949 3118.9509 4069.7471 1134.8762 1232.1813 1168.0751 1193.0554 1193.5643 962.4183 1160.2225 555.8526 1030.1422 841.6680 704.6793 889.9123 1222.8284 1378.1827 1117.0990 920.2036 1578.2798 974.5054 1339.8656 946.7329 1257.3264 1227.9207 1293.2440 3087.4875 3698.1228 2620.9104 2944.5493 2789.3948 5630.3745 1235.3004 1337.6780 902.9097 1083.6100 957.5692 1878.5911 694.4790 884.4543 803.0800 566.4717 640.8119 755.4308 1760.4240 1337.0647 862.0705 1163.5059 805.9099 990.8533 917.0502 1363.6356 963.4441 1806.9939 3151.4709 1529.8710 1398.2754 2222.6101
2707.5747 2468.6108 2737.3030 1587.4888 855.5379 1129.6143 878.5431 884.1655 1230.9521 975.3317 1310.8401 605.7545 711.4467 616.0423 533.5775 850.7340 1118.0098 991.3014 1164.3439 837.2949 1663.9565 987.5004 966.9279 931.2517 1238.7738 1363.1460 941.5458 3228.3872 2458.9622 2887.1277 2704.9128 2514.7317 2689.2795 757.2719 1263.3937 837.7205 858.0089 917.7017 1876.3199 776.3232 838.4532 549.2092 488.1212 605.8702 747.8710 1351.0446 1119.5521 878.1699 1276.8589 851.6951 785.5112 939.7576 994.2150 924.6188 2095.4470 3518.9832 1557.4042 1286.8292 2802.5139
1996.9052 1959.2634 2301.2634 782.4845 604.5724 878.6042 504.8487 507.3633 840.3835 765.3614 1054.4275 467.1479 473.2624 423.5277 369.2505 584.2211 784.5375 621.8499 824.0734 606.5508 1314.7594 660.9042 557.2411 663.9162 1007.9256 1234.5585 591.3188 2686.3750 1729.8414 2391.4221 2080.5605 1971.5370 1709.9280 414.8619 1055.5430 594.8974 544.4205 615.3975 1395.4083 658.8798 598.6221 388.1354 376.7394 482.6120 529.4012 816.3380 728.7032 677.9709 949.8104 578.3292 503.1168 646.8929 596.6419 717.1840 1902.5009 3087.4189 1218.0760 891.5482 2432.2256
1287.8208 1411.7484 1509.5458 437.0446 400.5228 641.2462 326.7283 319.4679 467.9319 503.4619 624.3208 261.2399 277.3068 256.3637 215.0561 342.1189 431.4067 371.8127 448.4898 341.1691 895.4265 387.5729 348.4497 434.6213 706.6627 895.8180 373.4383 1649.5082 1081.1202 1559.4625 1260.3743 1359.8779 985.9387 279.4440 764.6111 379.8439 340.2096 358.9371 826.5450 389.6460 338.8645 237.0838 217.0180 275.6533 323.9404 483.9319 416.8681 380.2581 478.7245 364.9689 311.1229 447.1445 385.7819 487.3550 1403.4705 1985.6818 790.5707 537.2900 1617.0090
927.4438 980.5934 975.2352 320.1168 273.7132 490.2617 232.6562 223.4063 294.8356 341.1107 373.8971 154.7511 182.7523 173.8287 151.1333 235.9824 281.7991 256.3731 300.6140 219.2187 678.2664 249.2862 235.6891 303.0704 514.6829 586.4905 284.9643 1109.8286 766.8527 1011.8329 894.8364 918.6673 630.9910 213.5270 531.7801 275.2107 234.3589 219.6350 554.3062 235.5577 210.5325 163.8313 140.4586 171.6094 211.6703 339.9699 278.2103 228.8565 298.1431 245.9308 219.5530 303.4953 277.4727 330.8141 961.3834 1287.0895 515.1067 396.5376 1048.0166
650.6288 662.0162 615.8468 213.5621 199.6909 335.4683 163.8248 160.3378 198.3783 222.2050 235.8890 100.7589 129.3440 121.6614 115.1943 174.4080 185.1740 172.9173 196.3066 147.8308 486.2552 164.9355 165.9582 214.4002 346.1360 375.8468 201.2587 703.7296 542.5754 657.3144 582.3719 594.5412 406.1809 152.1012 359.7538 203.7283 161.9546 139.5052 368.5865 149.5723 141.6916 118.2719 96.2013 113.9122 152.0963 239.3506 178.7684 149.5561 196.9466 167.2166 151.8695 217.5417 186.5435 238.4182 620.2165 799.1989 349.9418 290.4102 663.7815
430.4245 479.3828 437.4442 176.0708 152.5471 271.7640 129.3862 123.7162 167.1641 154.6353 162.3437 88.1409 102.8547 100.6762 91.5845 136.7699 144.4832 133.4799 146.5139 113.9237 396.2224 126.5324 123.4379 169.7046 276.4086 255.9240 155.1604 494.3699 388.1478 440.0464 394.2767 432.4334 293.5381 120.3339 271.8613 163.0509 128.4911 115.3578 271.2723 104.9840 123.2440 97.6526 83.2466 86.4230 119.1093 185.9874 138.3031 109.3791 149.6300 129.9667 123.9648 169.9869 143.6622 177.6664 433.1539 526.6570 249.6869 245.3544 443.3649
311.5620 374.6767 346.3524 135.7435 119.8787 220.5117 102.7213 91.6475 126.8657 127.8929 123.4080 64.9552 80.6478 82.8847 77.2531 115.1618 113.2732 106.0291 114.3145 95.7301 313.0058 97.2424 90.0277 128.6925 214.1043 190.7175 116.0443 325.3596 282.9329 333.6863 263.9970 340.2831 229.5063 87.7253 212.5744 145.5666 99.3392 88.2178 229.6594 79.9289 92.3614 78.3207 64.9149 68.9956 99.9674 147.4581 110.7603 83.2455 116.5449 94.5020 105.4205 128.1638 101.8429 139.2791 331.0927 367.0515 178.4103 218.6425 327.5203
212.1234 290.4426 248.4583 102.8711 89.7935 176.3494 75.2407 70.9016 89.1334 104.1187 101.3644 47.3325 65.2873 65.8732 62.9251 93.5697 79.4843 79.6480 93.0929 76.3027 268.9783 77.7091 77.6160 95.0159 183.8296 158.6888 88.9845 256.4766 199.6158 225.3150 196.1794 249.1983 169.3838 69.7346 159.1757 124.2247 70.4197 62.3548 181.9035 64.2721 68.8276 61.8333 51.2042 57.3879 81.8690 119.7302 83.5501 63.0606 91.2703 79.5856 89.0536 102.4243 78.1726 110.2205 264.4015 286.6042 144.7470 188.2673 241.0841
151.4590 233.6570 209.9683 81.7574 71.6884 149.1515 64.1168 57.1041 71.3736 90.2948 80.1577 39.3217 51.1699 58.6359 56.4966 81.7184 62.9459 68.5100 70.4550 68.2699 217.3257 65.0411 61.7754 75.0239 146.7888 121.6343 67.4400 184.7242 153.1282 176.7776 131.7119 211.4614 132.5778 56.2961 138.8933 103.5508 59.2712 53.4682 155.4684 52.6860 52.7826 53.5948 44.4719 44.8051 65.3078 104.2466 68.5992 50.0408 75.6844 62.5040 77.4866 81.2380 60.5010 85.8697 204.9733 209.4121 110.6452 158.6044 182.1214
117.8541 189.6736 171.2294 64.4400 63.6186 125.2297 56.0756 49.7531 58.3255 78.9751 68.1044 32.2367 44.1416 51.9666 49.9033 69.2774 50.7381 60.6578 60.7263 58.2868 179.5865 53.6745 51.5415 63.8107 118.5446 98.8917 58.6526 137.6168 113.7810 138.6735 100.9489 170.8237 108.0973 47.9012 116.4669 93.8400 53.6633 43.8757 136.1406 43.2268 45.4723 49.4171 39.1004 39.3280 56.0494 88.2176 59.7066 41.9028 61.1674 51.8838 64.1041 71.1416 50.3188 73.6894 163.0860 160.1754 89.3183 138.9022 144.6338
99.5755 167.1746 148.5069 55.4405 53.7942 113.4773 50.2076 43.4070 50.7259 69.3436 59.0709 28.3777 39.8965 44.7384 44.6871 65.3532 43.9199 53.1665 53.2672 53.3126 162.6201 50.5166 45.5115 55.3694 108.1189 79.8553 49.4970 111.5210 96.7830 118.6526 84.1433 151.1403 90.8638 40.5375 101.4872 85.7938 45.8230 39.0850 124.7203 38.0608 39.4604 42.0140 34.2678 35.8632 51.7879 79.4471 51.2959 36.6552 56.2844 45.3861 60.9530 62.5675 43.6040 62.3025 139.4548 129.7603 70.4945 128.5820 125.4743
84.1756 144.2338 126.8817 47.2747 47.9373 101.6705 44.6828 40.3936 45.3773 59.6743 52.0886 26.4942 34.6418 42.3480 44.1939 58.5641 36.9183 45.6497 45.9107 49.7427 146.0410 44.7883 39.6965 49.1302 97.7632 70.7523 42.6629 93.7936 81.0019 98.6667 73.3936 127.2604 77.7007 37.1409 88.2077 76.9117 41.7107 35.5361 114.8423 34.0096 34.4949 38.7935 32.3326 32.8594 46.2954 69.5750 44.1197 32.3516 48.6974 41.6841 53.5134 55.6520 37.4295 53.8721 124.8914 110.7076 59.0080 115.5231 106.7438
69.1378 126.3835 106.5135 41.1522 41.0615 90.4474 39.3912 32.5072 38.5192 54.3088 44.9550 22.0614 30.3082 38.8834 41.0932 52.8311 31.1340 43.0039 38.4273 41.6047 131.9025 38.3062 33.4520 40.9044 84.6598 60.7265 37.5669 84.7029 67.4998 83.3281 61.7364 110.7669 64.9329 31.1369 77.8513 68.7515 35.0577 31.0241 95.3671 29.2088 28.7737 34.5989 28.4984 29.4929 41.5720 63.5123 39.3196 27.6403 40.7808 33.8857 46.6825 47.1604 32.4797 44.8216 109.1424 99.8371 52.5174 102.1176 92.6974
61.9805 114.2583 97.8647 38.3480 38.7474 80.1005 35.5735 28.5526 36.3621 48.7434 39.5228 20.2864 28.8900 35.6253 40.7349 52.7276 28.3422 39.3335 34.5297 38.7883 117.6841 34.1519 29.2733 37.9285 79.5384 57.3353 33.4803 72.9865 61.7149 75.5174 54.3390 97.8886 61.6618 27.8744 71.9393 63.2269 32.4349 28.2183 84.9123 25.3050 27.6731 31.2492 25.9864 27.0339 39.5487 59.2480 35.9072 24.9622 36.8030 30.5271 43.8602 42.9294 29.4667 40.6768 103.1325 89.4271 45.7672 93.7188 85.6563
54.4858 106.0775 84.4489 33.0624 32.7879 71.0185 33.5411 26.0826 31.2661 45.0107 37.4913 18.6653 26.0381 33.0102 38.6983 50.2708 25.6599 38.3694 31.8196 35.7841 109.0324 30.9569 26.1162 32.2829 73.0437 51.2198 28.1897 63.3010 54.1239 65.4459 46.9335 87.2916 52.7530 24.7343 61.2955 58.3234 28.8651 26.7167 77.7657 24.3011 24.4374 30.4651 24.0301 25.0706 36.2920 56.6327 33.6705 23.5309 33.1781 26.8497 39.1496 38.5638 25.8471 34.9348 94.2240 77.0192 38.1681 84.6474 74.2342
47.2664 93.0565 73.5387 29.5343 30.2562 66.0935 30.0502 24.0022 28.9472 42.7716 32.9301 16.2192 26.3859 30.5163 38.2289 46.6034 24.8670 36.1009 29.5132 33.4515 96.9174 28.3058 23.8433 30.2533 65.4960 45.6280 27.2301 55.9119 46.6144 57.2582 43.4381 77.5556 46.3813 22.8439 56.3379 55.4639 25.5753 22.9329 77.7013 21.5615 23.8028 29.4808 21.9110 23.7928 33.9767 51.9306 31.4199 21.0859 30.4324 24.9973 36.2839 36.0225 23.9271 32.5592 81.4546 68.4829 33.9283 81.3123 67.6201
42.4139 82.6038 70.3455 28.0710 28.0742 58.8105 28.0191 21.5483 25.0321 37.7285 31.3748 14.9735 23.9150 29.3135 38.9339 45.1090 24.6843 34.0633 26.4410 30.6092 87.8764 25.9581 22.0479 26.8424 57.6274 38.6440 24.1656 51.9001 41.8111 53.0595 39.4705 71.0223 43.5324 21.5361 51.7305 48.8242 23.0009 21.0395 69.4252 21.2636 20.7531 27.3149 20.9030 23.9240 32.4529 50.0904 29.2151 20.7163 27.8469 22.5308 30.6796 31.9899 21.6382 29.1097 70.7658 60.9763 31.9332 69.2619 60.7753
36.4107 78.1635 61.5084 24.7500 26.2965 55.2826 23.8129 19.7466 24.1717 35.4270 28.0464 14.2637 22.8971 27.4132 38.2953 43.0587 23.9790 33.6446 25.2205 27.2782 83.6948 24.1954 19.5369 24.8813 55.5288 36.7908 22.7588 44.3052 37.2538 44.3106 32.8184 64.0293 38.4580 19.7111 47.9110 45.4544 21.5574 19.2978 62.9103 18.6285 20.3464 25.8488 19.0672 21.8954 31.3135 47.1878 29.0091 18.9973 25.6793 20.5379 29.7607 28.9763 19.4247 26.9110 68.8339 54.8811 28.4588 67.0556 53.6831
33.4345 68.0548 56.3055 21.9971 22.6189 50.5191 22.1189 18.1183 22.2512 31.6359 25.6110 12.7246 22.5213 25.1071 39.6635 42.9459 22.7820 34.4235 23.2669 23.6900 76.0164 21.5176 18.6762 22.1909 50.4044 32.9369 19.6349 40.7180 33.4498 41.3203 30.7273 57.1836 33.8507 17.1852 44.2707 39.8162 19.2965 17.3109 54.2657 17.2154 18.8698 24.8058 17.3139 20.8082 29.6649 47.1989 29.3737 16.8981 23.1019 19.1292 26.1295 27.3206 17.5485 23.7493 60.0259 48.5762 25.7082 57.8029 47.8894
29.9011 64.5749 49.3885 19.8842 20.5941 44.8794 20.9491 16.4909 21.4534 29.0256 24.4532 12.6980 22.3701 24.9663 40.4884 40.8277 20.9801 32.9156 22.0494 21.6793 67.6839 20.0336 17.7758 20.1436 44.9145 30.1772 18.2877 35.3988 30.4452 36.0480 26.0330 52.3024 29.8811 15.6529 40.1117 35.4188 17.7895 16.8855 49.7700 16.1264 18.9080 25.2035 17.3547 20.4588 27.9940 43.9849 27.1402 16.1251 21.7778 17.5672 23.2732 24.7610 16.6133 21.7684 56.5278 43.0132 23.6943 50.7476 42.0135
28.0935 63.0312 46.3804 18.6837 19.6654 41.1220 18.7712 16.3965 19.9588 26.6094 23.5626 11.6253 22.2516 26.0821 46.6854 43.5673 21.4645 34.4225 21.0706 20.0508 62.6828 18.8756 16.6442 19.0146 41.6581 28.4209 16.3911 33.9221 28.8263 34.4211 25.2101 50.1864 29.1471 14.9677 36.3085 31.3379 17.1238 14.9995 45.2576 15.8849 17.7437 24.8473 17.0082 21.5199 28.1365 43.9756 27.6284 15.7381 21.0308 16.2285 20.6179 23.4010 15.5125 19.9785 54.2936 41.0269 21.6203 44.4167 41.7763
24.8492 56.5627 43.2981 17.6170 18.3608 39.0109 17.2514 16.1403 19.9761 24.3839 21.1847 11.6233 22.9094 25.5072 50.7627 42.4169 19.3991 36.7028 21.5684 17.7619 59.1918 17.1689 16.8033 17.0456 37.2489 25.0648 14.8855 32.4244 25.6873 31.7167 23.6100 46.8873 26.1564 14.1155 34.1077 29.1104 16.7520 14.4790 41.4247 14.5522 18.1879 25.3085 16.3956 21.2768 26.9626 43.4339 28.2959 13.8904 19.7833 16.1738 18.0989 20.2404 15.1076 17.4409 47.9392 38.4239 19.6395 41.9531 38.5211
23.5700 51.7931 39.6984 16.5438 16.6617 36.0781 15.9702 15.7717 20.1385 22.6316 21.2303 11.0367 25.0505 24.4922 56.5785 44.5399 19.3805 37.9939 20.9778 16.8552 52.9963 15.8205 15.9995 16.2701 35.1146 23.6911 14.1478 27.4269 24.3493 28.9135 20.3447 42.5183 24.2915 13.8204 32.0302 26.7326 15.2650 13.8905 38.1566 14.1638 18.9983 25.9568 15.2559 22.6677 27.0465 42.5384 28.5690 14.0731 18.8882 15.1566 17.2945 18.8626 14.2636 16.5172 45.3531 34.3989 17.6213 37.6288 34.7755
21.1031 50.3458 37.0100 14.8501 15.4450 34.0570 15.5011 15.6397 20.3431 20.9369 21.4012 11.1752 27.3434 25.9661 63.9187 46.2394 18.2423 41.5725 21.9155 16.3989 51.0558 15.5052 16.0756 15.2156 32.9796 22.3618 13.2268 24.9011 21.8069 26.8489 18.8505 40.7351 22.1419 13.3908 29.6474 24.4467 15.1250 13.5850 36.1386 14.1966 20.0367 27.8927 15.7818 24.0095 26.5555 44.0042 31.0313 13.3151 19.1019 14.5326 16.4421 18.0756 13.2481 15.7047 43.4994 32.1114 16.4588 34.9205 33.7003
20.7966 46.5822 35.1775 14.2734 15.0619 31.3132 14.3289 16.0662 20.2527 19.9080 20.9184 10.7524 28.4994 26.9978 72.7179 50.2196 18.7629 44.3515 22.7466 15.1537 45.4720 15.0101 16.2839 14.3677 30.4988 22.4614 12.9526 24.0367 20.9783 25.8562 18.5220 37.9880 21.1096 13.2900 28.2626 22.9983 15.0373 12.6999 33.9423 13.7753 20.3372 27.0386 15.3080 25.6481 27.9304 45.2449 32.3154 13.2536 19.2124 14.5457 14.8674 17.6812 13.5256 15.6704 40.6616 30.9235 15.7112 31.9308 31.4237
18.9979 43.2876 35.0096 12.9299 14.8847 29.5921 13.9007 15.3373 20.0228 19.3458 20.3510 11.1197 28.9370 26.6238 73.8313 48.9877 17.4537 45.3136 23.6638 14.1531 41.3562 13.5440 16.0333 13.4181 28.7584 20.8165 11.6570 22.8431 19.2163 24.5329 16.9687 37.1117 20.2070 12.5606 28.7924 21.3060 13.9817 12.7260 32.4611 13.4992 21.0393 27.5752 14.9717 25.3483 26.6640 44.5167 33.3242 12.0730 18.0625 13.5082 14.1916 16.6700 12.3279 14.2084 37.7713 29.2159 15.0941 29.6452 29.8830
17.2590 39.8971 33.6659 12.5277 14.0272 27.3068 13.7875 15.6829 19.5129 18.1135 20.3228 10.5911 28.0826 26.4239 75.0451 49.8184 17.6016 44.1904 24.4244 14.1187 37.0144 13.6022 16.4813 12.2388 26.5274 20.5530 11.1581 21.3603 18.0469 22.8642 15.4924 34.3260 19.8845 12.4894 27.6429 19.2252 13.9187 12.1938 31.4791 13.0761 20.3903 26.6346 14.4591 24.9823 26.4450 42.9251 33.2196 12.1010 19.0484 13.3532 13.4559 15.9825 12.1842 13.3908 36.0311 28.5369 14.3108 27.1097 27.8772
17.4122 39.2514 32.5903 12.1808 13.3221 26.9201 12.8946 15.7437 20.0561 17.2854 19.7611 11.0712 26.2229 24.7190 65.4542 45.1829 17.1517 41.5603 24.2609 13.2329 36.1706 13.8132 16.6534 12.3785 25.9328 19.5899 10.8466 20.0616 17.2333 22.8037 15.2166 34.4593 18.6475 12.5350 26.1757 17.9518 13.4927 12.0287 30.4408 13.0070 20.3305 24.7194 14.2846 22.8493 24.9751 41.0140 31.6966 11.6337 18.0677 14.0341 12.7007 15.7291 12.0862 12.9045 35.0475 26.7478 13.3522 25.3265 27.1954
15.8524 36.2939 30.7787 11.6994 12.4317 24.2355 12.5294 15.4674 20.4420 16.9972 19.3926 10.8766 24.4658 22.8791 55.5232 41.4401 16.8317 37.4239 24.1499 12.7144 31.1399 13.2452 17.5442 11.6046 24.3610 18.9727 10.7194 19.1011 15.9188 21.4768 14.2324 32.1381 17.7607 11.8324 24.9641 17.3162 12.5356 11.9982 29.5500 12.5438 20.0106 22.9360 13.8861 20.4695 23.8196 38.4583 29.2086 11.9810 17.6506 13.5535 12.1221 15.5731 11.7353 12.7865 32.4523 25.8996 12.8798 23.7001 26.0293
15.2174 33.8664 29.6575 11.4215 12.3524 23.0893 12.2345 15.4863 20.3922 16.3123 19.9195 11.2437 23.6459 21.4601 49.9971 38.4267 15.7801 35.5856 23.8881 12.1442 29.5404 12.1425 17.7767 10.8837 22.6798 17.6703 9.7980 16.9322 15.8671 19.7087 12.9309 29.8723 17.4181 11.3237 24.5732 16.1396 12.1940 11.9692 28.6006 12.9601 19.9207 22.4326 13.7525 19.2814 22.9713 36.7180 27.9665 12.0274 16.9384 12.8888 11.0086 14.1671 11.2865 11.9566 30.7008 23.9501 11.9540 21.7131 23.8105
13.6378 31.3465 28.6733 10.8537 11.8403 23.0627 11.1769 15.2198 20.1614 16.0612 20.5670 11.0049 22.8169 20.0511 42.7987 33.8001 16.1111 33.3717 23.6318 11.1987 28.8023 11.8777 17.7810 10.8302 21.4854 17.3559 9.6542 16.6336 14.3617 18.6478 11.7232 28.5910 16.8800 11.0460 23.6858 15.4394 11.5733 11.1634 27.6257 13.0828 19.8624 21.2529 13.3717 17.9447 21.4466 34.4435 27.0042 12.5528 16.0447 12.8075 10.4412 14.5237 11.6308 11.8331 27.9892 22.9912 11.6534 20.4671 22.0064
13.5768 29.7786 28.7633 10.8529 12.2305 21.8222 11.0442 14.8249 19.8969 15.2793 20.2814 11.1595 21.4444 17.7998 35.5433 30.7301 17.2416 32.5907 24.3107 11.0511 27.5142 11.5355 17.5143 9.4951 21.0056 16.9852 9.0340 15.3757 14.5691 18.3800 11.7262 27.6818 17.3396 10.7014 23.8321 15.0517 11.5617 11.3005 27.0091 12.9312 19.2295 20.1643 12.8243 16.3249 21.0651 33.8558 27.8947 13.0787 16.2272 12.0784 10.2429 13.6475 10.6147 11.1187 27.0603 21.5178 10.8847 20.6198 20.7963
12.7370 27.0948 27.2492 10.6009 11.8316 20.9232 10.4181 14.5794 19.1608 15.2724 20.1489 11.1161 19.9114 17.2125 30.2845 27.5499 16.2313 30.1672 22.9879 11.0374 25.7770 11.4914 15.7898 9.1465 19.6839 15.8150 8.7803 14.7045 13.4967 17.7882 11.2687 26.1044 16.8493 10.6512 22.5143 14.3244 11.0898 11.0333 26.8996 12.9329 18.5558 18.9676 12.7849 15.0697 19.7618 32.7959 26.3411 12.8425 15.7402 11.6709 9.6572 12.9020 9.6205 11.1678 24.1080 19.8618 10.7907 19.0187 19.1760
11.8783 25.1043 26.7711 9.9242 11.8086 20.0700 10.0692 12.9205 17.9059 14.0191 19.7004 11.0482 18.4273 16.3927 27.1527 25.0685 16.0396 27.0659 20.0064 10.2238 24.8971 10.6711 14.3659 9.0453 18.2224 15.1684 8.8413 14.5740 13.2132 17.0717 10.4206 23.8842 16.9842 9.5887 22.4428 13.3320 10.5247 10.6799 25.6715 12.7714 17.5531 18.2652 12.6494 14.2014 18.9947 30.4124 24.1925 12.7983 14.3687 10.7378 8.6541 12.1043 9.0818 11.4535 22.3767 19.3332 11.2091 18.1011 17.5971
11.4374 22.5508 25.3328 9.8025 10.8564 19.2359 9.5164 10.8873 16.0334 13.1410 19.5441 10.3920 16.5408 15.0844 23.9918 23.5918 15.4545 24.3562 18.2950 9.9775 23.6464 10.3573 12.9802 8.1674 17.4844 14.3428 8.1594 13.5202 12.7949 15.9323 10.4112 22.1990 16.3502 8.4389 21.1334 12.6790 9.1524 9.9768 23.7203 12.5724 15.9997 16.7580 12.0222 13.8808 18.8757 28.2746 22.0353 13.0541 13.8664 10.0159 8.5577 11.5235 8.0299 10.9009 20.1009 17.4526 10.3649 17.0702 15.9602
10.6869 22.0268 23.2085 9.1296 10.6472 18.0938 9.1862 10.0422 14.5144 12.4931 19.8613 9.4115 15.1891 14.0354 21.7761 21.4382 14.7533 22.6840 16.4726 10.0323 23.6509 9.7631 11.0982 7.8617 17.8722 14.3497 7.8920 12.8790 11.6997 14.5763 9.8199 20.7519 15.4139 7.7426 19.5049 11.8540 8.7370 9.4496 22.7032 12.7758 14.0742 15.2409 11.2292 13.4109 17.7885 26.9638 20.6601 13.2485 13.2375 9.1718 8.2998 11.7013 7.0817 11.0432 19.5402 16.7669 10.3100 15.8823 15.0244
10.4099 21.4165 23.3490 8.8467 10.4114 17.5773 8.8161 8.9596 14.0313 11.7440 18.3853 9.3237 13.7449 13.2267 19.2625 20.1170 13.5312 20.2943 14.9961 9.0097 22.3374 9.1573 10.4264 7.1762 16.6596 13.0417 6.9698 12.1672 11.3996 14.6646 9.4791 20.6528 15.4442 7.1393 19.3439 11.1076 8.2077 9.6405 20.9222 11.8960 13.4187 14.0960 10.6462 12.2189 16.5769 25.4486 18.6388 12.2616 12.2687 8.6143 7.6255 10.6276 6.4767 9.8470 18.5483 15.6137 9.3979 15.0534 14.7555
9.9754 20.8080 22.8822 8.6310 10.2299 17.5780 8.4294 8.4084 12.5199 11.8664 18.5593 8.7947 12.5896 11.7096 17.5209 18.7030 13.2336 18.3454 13.1204 8.9966 22.0955 8.7412 9.1724 6.8535 16.7275 13.6759 7.0650 12.1660 10.7875 14.0714 9.6550 20.3216 15.1603 6.7721 18.9252 11.1102 7.7454 8.9527 20.6378 12.1325 12.0436 12.8880 9.6275 11.6498 15.9756 24.3043 17.2153 12.2393 11.3920 7.9827 7.7318 10.3635 5.9932 10.3598 18.4542 16.1472 9.7080 14.8219 14.4525
10.1411 20.4185 22.4210 8.8136 10.1313 16.8648 8.1405 7.6237 11.8006 10.6077 16.9565 8.2411 11.8422 11.2967 16.4369 17.1164 12.5105 16.8331 11.9368 8.2343 22.4215 8.1948 8.6028 6.8504 17.2700 13.7267 6.8542 11.8033 11.2062 13.7959 9.9090 19.2534 15.5682 6.4027 18.3588 10.5742 7.2487 8.4808 18.7987 11.0320 11.3827 12.1048 9.0712 10.9931 14.9555 22.7243 15.6638 11.4088 10.7385 7.3996 7.5169 10.2952 5.6542 10.2366 18.8031 15.6885 9.3723 14.3116 13.7955
10.4844 20.9374 22.6343 8.3430 10.3990 18.5580 8.0635 7.2016 10.7447 10.3588 16.1176 7.7787 10.8618 10.7208 14.8611 16.0908 12.2143 15.9674 11.3940 7.7521 23.1181 7.7870 8.2620 6.3939 16.3451 13.0757 6.5792 11.9831 10.8336 14.2144 10.5131 20.0675 15.4265 6.1068 19.1868 10.8731 7.0300 7.9556 17.6545 10.9259 10.2259 11.3371 8.8349 10.4616 14.3524 22.1803 15.1536 10.9826 10.5008 7.5414 6.9196 9.2984 5.3567 9.8684 18.2632 15.5212 9.4215 13.9591 14.0818
10.4907 21.0025 24.6620 8.3845 10.7453 19.1852 7.7176 6.9571 10.6281 10.5133 15.2470 7.6116 10.2017 10.0924 13.9299 15.5730 11.5758 14.6737 11.1763 7.4840 22.7047 7.4857 8.0033 6.4230 16.8759 14.6029 7.0529 12.3852 10.8629 14.6683 11.3214 21.3337 16.5790 5.7746 20.2625 11.0123 6.7840 7.9601 17.4227 10.6408 9.8568 10.8924 8.2118 9.6540 13.4494 21.1885 14.0588 10.3688 10.3550 7.2416 7.0878 9.5806 5.1978 11.0088 19.0571 16.5990 10.1006 14.0559 14.3681
11.6049 22.3214 25.0233 9.1548 10.9679 20.0336 7.5900 6.5879 10.4622 9.8601 14.9798 7.3811 9.9296 9.6602 12.9759 14.9470 11.0702 13.2578 10.6127 6.9461 25.3385 7.2520 7.5462 6.1216 18.4251 15.8000 7.2630 13.4909 11.6409 15.5353 12.7263 21.8814 17.3070 5.7409 20.3647 10.7638 6.5239 7.8617 16.0880 10.3918 9.4910 10.3170 7.8500 9.5770 13.1354 19.8765 12.8247 10.2665 10.0324 6.9964 7.0803 9.6381 4.7641 11.6172 20.8868 18.3668 11.0826 14.2354 15.5314
12.1577 22.2556 25.6715 9.0786 11.0215 19.5328 7.3909 6.2127 10.0470 9.5164 13.6977 6.8300 9.2057 9.2918 12.1838 13.8780 10.0232 12.8864 9.9301 6.7757 24.9051 7.2476 7.3857 5.8911 18.7701 16.2255 7.2298 13.8932 11.7563 16.3283 13.3958 21.7044 17.7765 5.5716 20.4676 10.6242 6.1347 7.3269 15.1493 9.3870 8.9595 9.3042 7.3022 8.7988 12.7155 19.3221 12.3195 9.4344 9.6258 6.8325 7.1122 9.5983 4.5925 11.5931 21.6227 18.9132 11.1985 13.7564 15.9006
14.3905 23.2930 28.5446 9.5903 11.9164 22.1831 7.0482 6.1697 9.8422 9.2895 12.8262 6.7944 8.9112 8.5819 11.6969 13.9820 8.8289 11.3737 9.3921 6.3357 29.3232 6.8606 7.2529 6.1129 21.3007 16.6795 7.3946 15.9660 13.0345 18.6833 16.1495 23.5401 19.6092 5.7543 21.9920 11.5782 6.1231 7.0167 14.3397 9.0738 8.8201 8.8125 6.9446 8.5394 12.2122 18.2629 10.6762 8.3145 9.3742 6.8702 7.7441 9.8976 4.5206 11.8142 22.7822 20.6458 12.0625 15.3991 17.0593
15.3339 25.2623 29.3127 10.1713 12.1231 24.7199 7.0646 5.8776 9.8105 9.3915 12.5682 6.4877 8.3365 8.2394 10.6097 13.1296 9.1090 10.2455 9.0733 6.1432 33.5301 6.3011 6.9011 5.7226 23.7960 18.5691 7.5812 18.1050 13.9181 19.3465 18.9113 24.5322 20.5102 5.5319 23.1159 11.9963 5.9017 6.9145 14.4780 8.8896 8.2013 8.0770 6.5113 8.0613 11.5772 17.0469 9.8798 8.2389 9.4353 6.5103 7.8873 10.2307 4.1179 12.8732 24.9963 22.7915 13.0994 16.2461 18.4362
17.3704 26.9610 30.7407 10.4228 12.9198 26.2255 7.1199 5.4966 9.5092 8.7112 11.2810 6.1194 8.2668 7.7258 9.7110 12.3445 7.9902 9.9369 9.0335 6.0586 36.6507 6.4058 6.7774 5.4591 25.9830 19.5326 7.6128 19.1356 14.1735 21.8142 22.2933 25.9960 21.7568 5.4915 23.9431 12.7978 5.6538 6.7178 13.3107 7.9937 7.9838 7.5813 5.8794 7.1243 10.5779 16.1303 9.6088 7.3361 9.1157 6.5481 8.6166 10.1922 3.9679 13.1513 26.9252 23.8093 13.2763 17.3641 20.8790
16.8849 27.5743 30.1444 10.1363 12.6571 26.9867 6.8339 5.1707 8.9029 8.3730 10.4573 5.8866 7.5103 7.6084 9.4136 11.5656 8.0173 9.5949 8.5545 6.0354 38.0921 6.0742 6.2631 5.7589 28.1167 20.7158 7.8174 19.2861 13.5215 20.9886 22.3230 26.0747 21.2572 5.2002 24.1812 11.4209 5.2077 6.5851 12.5504 7.4073 7.3945 7.1011 5.6595 6.6018 9.9215 15.3692 9.0483 7.0856 9.1095 6.6251 8.5837 10.7467 3.8929 13.6414 28.6287 23.8626 13.1238 16.1457 20.0301
16.5016 25.9943 27.8112 9.9338 12.0465 27.0405 6.3347 4.5980 8.3911 8.2423 9.6927 5.3746 7.2525 7.1308 8.7931 10.7214 7.7683 8.3553 8.0980 5.6514 38.9634 5.9551 5.7484 5.7388 27.7174 18.9500 7.3025 18.0698 13.1622 20.0120 21.3579 24.2459 19.8100 5.1369 22.5172 11.3901 4.9791 6.1631 12.0818 6.9712 7.0552 6.6481 5.1789 6.2009 9.0682 13.3675 8.0311 6.6319 8.6592 6.4178 8.5561 10.3351 3.6595 12.5665 26.7504 21.7965 11.9682 16.3039 18.7539
14.1811 22.6940 23.5319 8.5582 10.4585 23.6003 5.6676 4.2749 7.3914 6.9918 8.4044 4.7323 6.4804 6.4652 8.1594 10.0834 6.2915 7.8091 7.1962 5.1334 34.2947 5.0693 5.3246 4.8758 24.9840 16.5944 6.4976 15.0802 11.2423 17.0716 17.7847 20.7310 16.7016 4.7736 19.0992 10.3633 4.5262 5.4983 10.6501 6.0644 6.0060 6.0484 4.7189 5.3719 8.2482 12.7561 7.3027 5.5960 7.3405 5.6246 7.8470 9.2539 3.3372 10.9308 23.4505 18.1353 10.0548 14.8472 15.7506
11.3197 18.8200 19.4491 7.4306 9.2245 20.2900 5.1351 3.9137 6.4671 5.7834 7.1986 4.1702 6.2582 6.0067 7.9079 9.1585 5.8863 7.3575 6.4684 4.4168 29.6941 4.6244 4.5443 4.8181 20.6600 12.8979 6.0625 11.9831 9.6700 13.9120 13.5907 16.9712 14.2187 4.3496 16.3126 9.2771 4.3090 4.7948 8.7468 5.2725 5.5609 5.8007 4.4934 5.1394 7.6427 11.4106 6.8115 4.9774 6.5915 5.0615 6.7738 7.7748 3.3617 9.4303 18.5453 13.8907 8.1218 13.3733 12.7867
9.5818 16.9419 16.5437 6.5522 7.8979 17.0356 4.5940 3.5317 5.5271 5.4389 6.4651 3.6683 5.1431 5.4781 7.5264 7.9159 5.8277 6.8517 5.6950 4.2244 24.1841 4.3534 4.0887 4.4587 17.3392 11.5153 5.6383 10.9731 8.3928 11.2154 11.6459 15.2794 11.7306 4.0148 13.8642 8.0837 3.8862 4.4037 8.3142 4.6327 4.5537 5.2589 3.9750 4.5332 6.6909 10.0472 6.3048 4.7554 6.1661 4.4671 5.9027 7.1237 3.1858 8.5558 16.1294 12.6409 7.5129 11.1291 10.8893
8.0006 14.3747 14.2980 5.7523 7.2457 14.1664 4.0465 3.1833 4.7143 5.1587 5.8467 3.1923 4.6887 4.8238 6.8257 7.4552 5.6346 6.5207 5.0272 3.8906 20.5963 4.0035 3.6102 4.0273 15.1435 9.5679 4.9538 8.8651 7.2191 9.2383 9.0350 12.6671 10.4185 3.6294 12.0530 6.9203 3.7090 3.9331 7.8281 4.3665 3.9879 5.0199 3.5046 3.9496 6.1297 9.6959 5.8574 4.2762 5.3221 4.1023 5.1440 6.0746 2.8795 7.3662 13.7122 10.1869 6.4960 9.6688 8.7450
7.1625 12.1837 12.2113 5.2684 6.4630 12.1443 3.8420 3.0370 4.3885 4.6722 5.1518 2.7810 4.4128 4.4293 6.3002 6.6558 5.8146 5.8911 4.4293 3.5860 16.8543 3.8197 3.2523 3.7168 12.2642 8.0262 4.3597 7.5550 6.4327 8.3914 7.8563 10.8883 8.9925 3.3967 10.3271 6.3122 3.5013 3.6292 7.2885 3.7991 3.6248 4.5104 3.1913 3.5336 5.5505 8.8779 5.4832 4.1518 4.7999 3.6698 4.5787 5.4861 2.6268 6.4298 11.2294 8.5707 5.5087 8.6068 7.9066
6.4553 10.5375 11.1449 4.9251 6.3033 10.1866 3.3190 2.8947 3.9063 3.9253 4.3527 2.5481 3.8337 4.1290 5.8401 5.8646 4.4801 5.2434 3.9095 3.2083 14.4151 3.2756 2.9001 3.8294 10.8152 7.1753 4.3427 6.7730 6.0398 7.5304 6.8309 9.4674 8.5262 3.3532 9.1815 5.2734 3.3832 3.1950 6.1694 3.3148 3.2337 4.1843 3.0538 3.2267 4.8027 7.5962 4.6788 3.3562 4.2584 3.2791 3.8868 4.9631 2.6157 6.2748 9.7241 7.4945 5.0500 7.3024 6.7369
5.7567 10.1570 10.6862 4.7351 5.8503 9.2165 3.0278 2.5423 3.7022 3.7637 3.9823 2.3711 3.7085 3.8573 5.8993 5.7280 4.0958 5.1623 3.7984 2.9898 12.7881 3.3635 2.8017 3.8415 9.8760 7.0692 4.2069 6.0918 5.5854 6.8217 5.7561 9.1397 8.2508 3.0778 8.6844 4.8054 3.0307 3.0623 5.9119 2.9948 3.1019 4.0796 2.7573 3.0138 4.5524 7.4650 4.4788 3.0594 4.1644 3.3050 3.4656 5.0408 2.5549 6.2086 9.1839 7.1942 4.7725 6.6120 6.2945
5.3493 9.3395 10.2268 4.4976 5.7549 8.4794 2.9889 2.5654 3.3259 3.6936 3.9132 2.2593 3.3921 3.6955 5.5575 5.4358 3.6975 4.7909 3.3597 2.8219 11.3890 3.0503 2.5731 3.6400 8.7314 6.3730 4.0143 5.9160 5.3455 6.5739 5.2711 8.5928 7.8031 3.0635 8.2325 4.6215 3.0052 2.8101 5.8109 2.9594 2.8450 3.8359 2.7338 2.8809 4.4087 7.0209 4.1529 2.8357 3.7354 2.9918 3.0703 4.6234 2.3787 5.8952 8.1986 6.5730 4.6299 6.0373 5.8977
5.5028 9.5856 11.0093 4.8080 6.2789 9.0178 2.8288 2.3024 3.1183 3.5201 3.7944 2.1410 3.1496 3.5117 5.0579 4.8844 4.4037 4.6667 3.1366 2.6716 11.3679 2.8413 2.3294 3.7698 8.8548 6.5960 4.0077 5.6016 5.6215 6.8712 5.0645 9.0992 8.5183 3.0156 9.1126 4.3115 2.9354 2.6259 5.6038 2.8916 2.6402 3.5891 2.5702 2.7373 4.2280 6.5809 4.2502 3.0656 3.4807 2.8335 2.9707 4.7346 2.2912 6.0228 8.5915 6.6664 4.5483 5.7498 5.8935
5.3275 9.9876 11.3340 4.8013 6.5031 9.1252 2.7873 2.2724 3.2297 3.5844 3.6690 2.1729 3.1552 3.4343 4.6746 4.8603 3.8054 4.2413 3.1868 2.6324 11.1481 2.7736 2.3664 3.8585 8.6120 7.2521 4.0364 5.4058 5.6649 6.9035 4.8513 9.5779 8.8625 2.9387 9.4189 4.3403 2.8886 2.6682 5.5270 2.8258 2.7422 3.5824 2.5663 2.6043 4.0129 6.2210 3.7782 2.8560 3.4503 2.8184 2.8721 4.8427 2.2805 6.4595 8.9790 6.8279 4.4713 5.6627 6.1365
5.6396 10.5867 13.1762 4.8868 7.4091 10.1413 3.1261 2.2074 3.1485 3.6790 3.8628 2.2418 3.0218 3.3659 4.3138 4.5835 3.3125 4.1801 3.1370 2.4863 12.0574 2.7363 2.3353 4.2917 9.8145 8.3039 4.4441 5.3280 5.7753 7.6524 5.0062 10.5793 9.8001 3.0699 11.3393 4.3694 2.9253 2.6543 5.5783 3.0324 2.6441 3.3976 2.6272 2.6154 3.8495 5.9782 3.6887 2.6685 3.2827 2.7579 3.0348 5.5782 2.3753 7.4381 9.9703 6.8796 4.5203 5.7782 6.4007
5.8499 11.2084 14.5176 5.0233 8.2483 11.4732 3.2667 2.1498 3.1573 3.8270 4.1688 2.3709 3.0144 3.3677 4.0520 4.1203 3.2868 4.0003 3.2209 2.6094 12.6481 2.6927 2.2489 4.5937 10.4301 9.5204 4.7584 5.4864 5.8321 8.1159 5.2365 11.5010 10.6639 3.1439 13.1629 4.4479 2.7841 2.7676 5.7228 3.3061 2.6649 3.2207 2.6829 2.7029 3.6916 5.5375 3.6023 2.8082 3.2859 2.7044 3.0872 6.1756 2.4149 8.3523 11.0769 7.2556 4.7412 5.7963 6.6513
6.1985 12.7212 16.7808 5.4442 9.6671 13.7643 3.6909 2.1977 3.4279 4.3123 4.9419 2.8013 3.2008 3.6132 3.8081 4.0742 3.1392 3.9073 3.3437 2.8443 14.3870 2.6757 2.2699 5.0179 12.2985 11.1280 4.9561 5.5679 5.9950 9.0784 5.5107 13.4326 12.0073 3.4499 15.6877 5.0619 2.9732 3.1058 6.2872 4.0461 2.8686 3.2287 3.0779 2.8981 3.6242 5.3564 3.5398 3.0454 3.2159 2.7451 3.4898 7.3451 2.4747 9.2383 13.0512 7.6555 4.7133 6.4360 7.3444
6.2093 13.0195 18.2642 5.0790 10.2636 15.5142 4.4943 2.2299 3.7004 4.9627 6.1530 3.4317 3.7076 4.1969 3.7062 3.8925 3.8341 3.9635 3.6527 3.4140 15.5011 2.7146 2.2581 5.4655 14.3856 12.1313 5.0165 5.4888 5.6646 9.3204 5.5464 14.2872 12.0822 3.4367 18.0746 5.8980 3.1033 3.3717 7.4087 5.1925 3.2041 3.4067 3.9401 3.5817 3.6841 5.0802 3.6549 3.9479 3.3944 2.9255 4.0629 8.4573 2.4621 9.7046 14.4006 7.6769 4.6098 7.3701 7.4449
5.9476 14.2501 18.4680 4.4960 10.0271 18.1888 5.7408 2.3485 3.9614 6.5420 8.1428 4.2279 4.1074 4.5906 3.4847 3.8899 4.4333 4.4455 4.2985 4.3109 17.6722 2.8078 2.4262 5.6236 16.9396 13.1567 4.7763 5.3628 5.2890 9.0057 5.2568 15.1028 11.2804 3.1637 20.2272 7.5748 3.1261 4.1507 9.4173 7.0698 3.3551 3.3903 4.7827 4.3400 3.8855 5.1812 4.2207 5.0395 3.5987 3.1981 5.1614 9.0767 2.5308 9.6321 16.6972 7.9380 4.3617 9.4879 7.5715
5.4998 14.0266 16.5667 4.2214 9.1261 17.3649 6.3731 2.3413 3.8433 8.0770 10.5369 5.0937 4.3758 5.2110 3.4907 3.7560 4.8655 5.0858 5.1144 5.5845 17.9306 2.9894 2.7370 5.6610 19.1997 13.5836 4.4000 5.0110 4.8134 7.9549 5.0699 13.7744 9.8063 3.1072 19.0228 8.4396 3.0493 4.9831 11.5988 9.1067 3.4416 3.5340 5.6975 5.3789 4.0230 5.1097 4.9245 6.3895 3.9025 3.5464 6.3575 9.7965 2.5946 8.9753 18.2728 7.7587 3.8242 10.8597 7.3042
4.7070 13.7905 14.4524 3.5641 7.6837 16.5272 6.7984 2.4020 3.6621 9.7836 12.7287 5.3998 4.5151 5.2608 3.3275 3.7861 4.8153 5.5479 5.6981 7.0277 17.8087 3.2237 2.9463 5.3908 19.8523 12.9168 4.0386 4.6787 4.2714 6.6130 4.4580 12.3907 8.2361 2.6914 17.1093 9.7308 2.9804 5.5239 14.4312 10.5853 3.2804 3.4477 5.8666 5.9274 4.1207 5.0727 5.1826 7.5149 4.0036 3.9346 7.5387 9.5488 2.5672 8.0573 18.4172 7.2699 3.5357 12.7344 6.6766
4.0866 12.6298 12.1883 3.1538 6.2864 13.9763 6.4388 2.1466 3.4574 10.5878 13.3449 5.1967 4.3027 5.1645 3.1977 3.5870 4.8395 6.0689 5.8253 7.9216 17.2885 3.4682 3.0309 4.7877 20.3803 11.7560 3.4364 4.0941 3.6798 5.5842 3.9575 10.5528 6.9321 2.3764 14.1594 9.4816 2.7352 5.7505 15.7851 10.5357 3.0466 3.3193 5.6733 5.9185 3.9203 5.0403 5.4815 8.1230 3.9874 3.8068 8.6475 9.2344 2.4348 6.5950 17.6946 6.3896 3.0957 13.5941 5.7101
3.3896 10.5819 9.6396 2.9078 4.9537 10.9740 5.6785 1.9335 3.0744 10.5601 12.6411 4.6059 3.8756 4.4816 2.8681 3.3333 4.5693 5.8873 5.4177 8.0585 14.3696 3.4299 2.8961 4.0237 17.6750 9.8272 2.9214 3.4847 3.3408 4.4164 3.2300 8.5627 5.7011 2.0753 10.8636 8.8262 2.4961 5.4193 16.3244 9.6148 2.7248 3.0951 4.9599 5.3708 3.7032 4.8971 5.1696 7.7849 3.8482 3.4533 8.2384 8.1608 2.1659 5.3938 14.6950 5.2864 2.7019 13.0334 4.6426
2.8009 8.8802 7.7376 2.6274 4.2890 8.4928 4.8418 1.8030 2.6767 9.7367 11.1270 3.7416 3.1046 3.7559 2.5678 3.0682 4.5431 5.4348 4.7264 7.8671 12.2004 3.3925 2.5481 3.4660 14.5678 7.8651 2.6826 3.0737 2.9436 3.5297 2.6447 6.8338 5.0416 1.8482 8.3962 7.7063 2.3563 4.8657 15.9624 8.0738 2.2398 2.5995 3.9305 4.4327 3.2663 4.5429 4.8134 7.0588 3.5568 3.0429 7.6366 6.6370 1.9534 4.6212 11.9278 4.4465 2.5992 12.0850 3.7407
2.3537 7.3026 6.6694 2.2629 3.5945 6.7923 3.8817 1.6115 2.2504 8.1030 8.9417 2.8898 2.5106 3.2921 2.2701 2.8953 4.0804 4.7586 4.0877 6.8439 9.8710 3.2787 2.1686 3.0257 11.7098 6.1958 2.3560 2.6008 2.5582 2.9726 2.1922 5.6793 4.3719 1.6210 6.7046 6.6934 2.1235 3.8085 14.0177 6.3016 1.8766 2.3961 3.2950 3.4852 2.8755 4.2766 4.2286 5.7737 3.4239 2.6900 6.3614 5.6646 1.6474 3.8965 9.2126 3.6131 2.2310 10.4672 3.1771
2.0802 6.3622 5.6367 2.0841 3.0621 5.4872 3.1471 1.4407 2.0739 6.7072 6.7127 2.2811 2.1272 2.6436 2.0489 2.6790 2.7167 3.8808 3.2308 5.6286 8.0097 2.9735 1.8390 2.6974 8.8057 4.7554 2.1762 2.2979 2.3202 2.6273 1.8782 4.9283 3.9042 1.4549 5.3816 5.6213 1.9134 3.2278 11.6989 4.6339 1.6781 2.1703 2.5427 2.6057 2.4760 3.8679 3.3562 4.1203 3.0224 2.2370 4.9712 4.5091 1.5125 3.4532 6.9470 2.9609 2.1038 8.5678 2.6768
1.8900 5.1613 4.8084 1.9418 2.8044 4.2712 2.6136 1.3325 1.8184 5.5100 5.1735 1.7858 1.8214 2.2292 1.8801 2.5927 3.1847 3.2480 2.7956 4.6993 6.3208 2.7458 1.6465 2.3478 7.2157 3.9294 1.8864 1.9836 2.0923 2.3167 1.6791 4.2169 3.4749 1.3369 4.3636 4.6148 1.8672 2.5914 9.7348 3.5431 1.4516 1.9173 2.0396 2.0606 2.3458 3.6265 2.9118 3.6054 2.8402 2.0778 4.1220 3.9802 1.3069 2.9940 5.3365 2.4301 1.8051 6.9600 2.2526
1.7635 4.8014 4.3213 1.7674 2.7920 3.6214 2.2825 1.2597 1.6403 4.4485 3.8760 1.4490 1.6389 1.9188 1.7946 2.3521 2.5271 2.7029 2.2616 3.6398 5.4444 2.4316 1.5052 2.0324 5.9646 3.3911 1.7088 1.8454 1.9537 2.1348 1.5662 3.7238 3.2002 1.2227 3.7967 3.8211 1.9822 2.1965 7.6915 2.7083 1.3014 1.8378 1.6366 1.6482 2.1802 3.2358 2.4584 2.6173 2.4990 1.9251 3.1030 3.2245 1.2068 2.6338 4.7072 2.2618 1.6765 5.4330 2.0851
1.6063 4.2585 3.9373 1.6517 2.5789 3.2210 2.0359 1.2767 1.5895 3.4624 2.9451 1.2321 1.4827 1.7352 1.6437 2.2055 2.2968 2.4448 1.9495 2.9184 4.5281 2.2339 1.3482 1.8577 4.9582 2.7795 1.6066 1.6314 1.8773 1.9009 1.3661 3.4545 2.9998 1.1264 3.4270 3.3282 1.9140 1.9064 6.0957 2.0643 1.2213 1.7328 1.4602 1.4201 2.0369 3.0586 2.1753 2.1388 2.2205 1.7296 2.6702 2.8146 1.1616 2.3498 3.6874 1.9297 1.5566 4.5617 1.8500
1.4824 3.8128 3.6379 1.5255 2.2796 2.7739 1.6803 1.1595 1.4723 2.7852 2.2731 1.0976 1.3379 1.5789 1.5665 2.0798 2.5684 2.0247 1.7513 2.3440 3.7819 2.0686 1.2122 1.6833 4.1695 2.4860 1.4611 1.5967 1.6591 1.7352 1.3111 3.0921 2.7277 1.0716 2.9931 2.7781 1.6754 1.6069 4.9009 1.6272 1.1729 1.6277 1.3143 1.1877 1.9627 2.7819 1.9408 1.9567 2.1452 1.6340 2.0956 2.4769 1.0380 2.1469 3.1299 1.8141 1.4458 3.6163 1.6760
1.4168 3.5801 3.4582 1.5015 2.0072 2.5653 1.5471 1.0443 1.3224 2.3630 1.8288 0.9746 1.1702 1.4504 1.4470 1.9070 2.2371 1.9116 1.5335 2.0083 3.4027 1.8707 1.1375 1.6425 3.5816 2.2320 1.3846 1.4881 1.6145 1.5991 1.2282 2.9480 2.5671 1.0193 2.8259 2.4095 1.4656 1.4674 4.0448 1.3767 1.0490 1.4967 1.1907 1.0759 1.8018 2.6400 1.7301 1.6522 1.9610 1.5255 1.7235 2.2678 0.9724 2.0573 2.7280 1.6547 1.3886 2.9827 1.5653
1.2847 3.3454 3.3181 1.3980 1.8057 2.4004 1.3639 1.0475 1.2532 2.0367 1.5321 0.8785 1.1110 1.3265 1.3760 1.8072 1.5983 1.7231 1.3303 1.8028 3.0580 1.6792 1.0540 1.4861 3.2349 2.0169 1.3306 1.3253 1.4718 1.5227 1.1384 2.7985 2.3816 0.9863 2.5857 2.1611 1.3625 1.3202 3.5551 1.1328 0.9840 1.4201 1.0986 0.9478 1.6639 2.4874 1.5050 1.2582 1.7424 1.3684 1.5787 2.0805 0.9425 1.9008 2.4085 1.5056 1.2618 2.6409 1.4642
1.2965 3.2711 3.1649 1.4341 1.8581 2.2135 1.2495 1.0191 1.1994 1.8241 1.3595 0.8118 1.0337 1.3125 1.3049 1.7663 2.0154 1.6969 1.2862 1.5914 2.7741 1.5714 1.0228 1.3681 2.9310 1.8896 1.2498 1.3376 1.5524 1.4753 1.1163 2.7937 2.4533 0.9703 2.3664 1.9456 1.3816 1.2363 3.0825 1.0517 0.9071 1.3778 1.0636 0.9130 1.6526 2.4841 1.5130 1.3035 1.7508 1.3187 1.4312 1.8707 0.8732 1.7928 2.2166 1.5196 1.2623 2.3613 1.4700
1.2170 3.0357 3.1193 1.3132 1.7909 2.1065 1.2596 0.9763 1.1510 1.6287 1.2248 0.7679 1.0417 1.2536 1.2390 1.6538 2.0237 1.5295 1.1989 1.4354 2.5299 1.4537 0.9910 1.3996 2.6883 1.7650 1.2255 1.2343 1.4677 1.4650 1.0335 2.6341 2.3685 0.9374 2.3242 1.8649 1.3809 1.1282 2.7614 0.9682 0.8976 1.3549 1.0086 0.8605 1.5815 2.2811 1.3914 1.3262 1.6281 1.3225 1.2284 1.7877 0.8538 1.7350 2.0287 1.3835 1.2228 2.0883 1.3262
1.1718 2.9318 2.9667 1.3216 1.8325 1.9963 1.1530 0.9524 1.1288 1.4748 1.1230 0.7222 1.0097 1.2391 1.1885 1.6496 2.0807 1.4822 1.1593 1.3509 2.3604 1.4488 0.9687 1.2809 2.6103 1.6641 1.1786 1.2332 1.4410 1.3712 1.0181 2.4942 2.3324 0.9167 2.2278 1.6357 1.3662 1.0677 2.5480 0.9152 0.8551 1.3353 0.9878 0.8212 1.5451 2.2099 1.3650 1.3020 1.5617 1.2430 1.1933 1.6693 0.8368 1.6458 1.9075 1.3580 1.1738 1.8753 1.2711
1.1524 2.7972 2.8189 1.2721 1.6691 1.9125 1.0989 0.9121 1.0959 1.4252 1.0446 0.6997 0.8907 1.1745 1.1507 1.5375 1.8492 1.4134 1.1527 1.2411 2.3705 1.3207 0.9353 1.2682 2.5775 1.6358 1.1651 1.1991 1.3690 1.3174 1.0099 2.4273 2.1963 0.8583 2.0531 1.6421 1.2727 1.0633 2.3565 0.8498 0.8185 1.2418 0.9132 0.7614 1.4871 2.1136 1.2902 1.1514 1.5493 1.2743 1.1039 1.5859 0.7939 1.6585 1.8450 1.2977 1.1751 1.8302 1.2422
1.1519 2.7600 2.7388 1.2619 1.6090 1.8673 1.0616 0.9277 1.0686 1.3635 0.9734 0.6856 0.8641 1.1231 1.0805 1.4560 1.9074 1.3401 1.1103 1.1955 2.2421 1.2971 0.8880 1.2006 2.4348 1.5559 1.1385 1.1866 1.4064 1.2830 1.0097 2.3701 2.1538 0.8390 2.0134 1.5386 1.2687 1.0354 2.2788 0.7978 0.7862 1.2033 0.8990 0.7434 1.4190 2.0027 1.2376 1.1528 1.4632 1.2379 1.0577 1.5107 0.8100 1.5927 1.7302 1.3236 1.1383 1.6506 1.2183
1.0473 2.7269 2.6913 1.2273 1.4959 1.7445 1.0386 0.8713 1.0320 1.2502 0.9426 0.6501 0.8459 1.0740 1.0431 1.4780 1.8581 1.3067 1.0507 1.1515 2.1314 1.1891 0.8603 1.1562 2.3443 1.4687 1.0914 1.0874 1.2818 1.2490 0.9065 2.2836 2.0395 0.8502 1.8712 1.4257 1.2335 0.9632 2.1472 0.7667 0.7770 1.1975 0.8659 0.6998 1.4074 2.0335 1.2474 1.1194 1.4175 1.1555 0.9869 1.4359 0.7735 1.5098 1.6951 1.1960 1.0760 1.5573 1.2039
1.0305 2.6485 2.4928 1.1786 1.4284 1.7007 0.9656 0.8657 1.0020 1.1750 0.8884 0.6396 0.8423 1.0888 1.0648 1.4594 1.6654 1.3101 1.0638 1.0857 2.0640 1.1390 0.8462 1.1447 2.2296 1.4430 1.0898 1.0808 1.3110 1.1426 0.8955 2.2452 1.9446 0.8020 1.8463 1.3759 1.1553 0.9082 1.9867 0.7375 0.7613 1.1715 0.8723 0.7059 1.3734 2.0166 1.1868 1.0404 1.3663 1.1421 0.9499 1.3671 0.7516 1.5479 1.6062 1.1922 1.0982 1.5003 1.1508
1.0181 2.5581 2.5175 1.1479 1.5515 1.6453 0.9283 0.8218 0.9754 1.1946 0.8494 0.6246 0.7776 1.0654 1.0227 1.4057 1.8133 1.2790 1.0216 1.1027 2.0354 1.1351 0.8081 1.2050 2.1651 1.3374 1.0320 1.1232 1.2550 1.1304 0.9117 2.1095 2.0088 0.7978 1.7911 1.3496 1.2036 0.8929 2.0532 0.7190 0.7180 1.1229 0.8468 0.6754 1.3221 1.9471 1.1738 1.0906 1.3228 1.1808 0.9116 1.3120 0.7151 1.4755 1.5626 1.1885 1.0670 1.5094 1.1113
1.0037 2.5358 2.5029 1.1253 1.6105 1.5729 0.9234 0.8416 0.9683 1.1243 0.8371 0.6154 0.7784 0.9861 0.9589 1.3712 1.8710 1.1893 0.9853 1.0270 1.9543 1.1304 0.8031 1.1386 2.1082 1.2952 0.9906 1.0622 1.2306 1.1669 0.8587 2.1754 1.9749 0.7583 1.7104 1.2850 1.2223 0.9192 1.8702 0.7365 0.7067 1.0898 0.7948 0.6603 1.3049 1.8580 1.1067 1.1377 1.3215 1.1588 0.8946 1.2691 0.7155 1.4022 1.4863 1.1290 1.0262 1.4183 1.0843
1.0375 2.5134 2.4472 1.0912 1.9545 1.5068 0.8664 0.8263 0.8843 1.0686 0.7585 0.5958 0.7329 1.0183 0.9536 1.3213 1.3977 1.1406 0.9500 0.9575 1.7498 1.0771 0.8264 1.0953 1.9963 1.2744 0.9778 1.0425 1.1922 1.1653 0.8674 2.1131 2.0657 0.7520 1.7005 1.2170 1.2767 0.8718 1.8323 0.6309 0.6710 1.0694 0.7873 0.6122 1.2628 1.8340 1.0401 0.8485 1.2277 1.1289 0.8609 1.2935 0.6907 1.3804 1.3999 1.1122 0.9982 1.3255 1.0608
1.0172 2.3959 2.3342 1.0441 1.8218 1.4426 0.8516 0.8622 0.9043 1.0438 0.7472 0.5678 0.7339 0.9617 0.9223 1.2475 1.7572 1.1027 0.9229 0.9038 1.7508 1.0373 0.7919 1.0289 1.9636 1.2022 0.9356 0.9830 1.1674 1.0982 0.8426 2.0253 1.9481 0.7127 1.6066 1.1993 1.3328 0.8138 1.7723 0.6483 0.6680 1.0232 0.7599 0.6146 1.2403 1.7105 1.0699 1.0228 1.1723 1.0703 0.8360 1.2312 0.6612 1.2636 1.3268 1.0081 0.9235 1.2579 0.9682
1.0232 2.4115 2.3678 1.0637 1.7820 1.4488 0.8150 0.8593 0.8980 0.9971 0.7284 0.5693 0.7238 0.9253 0.8589 1.2242 1.5616 1.0782 0.9088 0.8814 1.7114 0.9443 0.7576 1.0191 1.9613 1.1243 0.9253 0.9647 1.1959 1.1247 0.8336 2.0425 1.9697 0.7144 1.5644 1.1468 1.3177 0.8159 1.6530 0.6277 0.6522 1.0172 0.7566 0.6073 1.2109 1.6598 1.0173 0.9246 1.1231 1.0499 0.8245 1.1251 0.6442 1.2299 1.3269 1.0081 0.9475 1.2224 0.9914
1.0005 2.2363 2.3273 1.0288 1.9601 1.3646 0.8167 0.7627 0.8790 0.9693 0.6869 0.5356 0.7666 0.9522 0.8956 1.2623 1.6212 1.0340 0.8756 0.8919 1.6237 0.9519 0.7397 1.0690 1.8559 1.1419 0.9063 0.9544 1.2429 1.1025 0.8051 1.8952 2.0882 0.6874 1.5817 1.1033 1.3891 0.7629 1.6241 0.5923 0.6476 1.0988 0.7346 0.5903 1.1756 1.6060 0.9715 0.9875 1.1318 1.0553 0.8185 1.1154 0.6702 1.2529 1.2532 0.9895 0.9302 1.1997 0.9747
0.9876 2.1971 2.1689 0.9938 1.6790 1.3580 0.7765 0.7437 0.8445 0.9589 0.6743 0.5400 0.7599 0.8994 0.8232 1.1617 1.3251 1.0821 0.7984 0.8659 1.6078 0.9351 0.7103 0.9243 1.8164 1.0618 0.8799 0.9384 1.1754 1.0711 0.8113 1.9150 1.9255 0.6520 1.4620 1.1413 1.2409 0.7483 1.5930 0.5725 0.6279 1.0205 0.7270 0.5699 1.1280 1.6440 0.9643 0.8235 1.0934 0.9214 0.7572 1.0764 0.6316 1.1225 1.2197 0.9824 0.8603 1.1764 0.9400
0.9752 2.2724 2.1645 0.9906 1.6638 1.3246 0.7329 0.7682 0.8272 0.9142 0.6876 0.5303 0.7051 0.8762 0.7957 1.1458 1.7482 0.9821 0.8037 0.8842 1.5874 0.8716 0.6923 0.9962 1.7549 1.0221 0.8503 0.8955 1.1499 1.0469 0.7876 1.9061 1.8635 0.6796 1.4356 1.0617 1.2137 0.7203 1.5902 0.6104 0.6169 0.9701 0.7098 0.5685 1.1532 1.5435 1.0019 1.0000 1.0949 0.9769 0.7762 1.0292 0.6157 1.1342 1.1797 0.9327 0.8549 1.1772 0.9405
0.9749 2.1774 2.1419 0.9779 1.5937 1.2821 0.7213 0.7287 0.8316 0.8816 0.6285 0.5144 0.6977 0.8840 0.7987 1.1249 1.5332 1.0124 0.8128 0.8136 1.5622 0.8518 0.6715 1.0202 1.7765 1.0068 0.8503 0.9383 1.1844 1.0611 0.7906 1.7623 1.8852 0.6917 1.3418 1.0401 1.2138 0.7132 1.5161 0.5753 0.6019 0.9536 0.6934 0.5569 1.0877 1.5544 0.9387 0.8546 1.0304 1.0023 0.7246 1.0250 0.6141 1.1580 1.1936 0.9302 0.9123 1.0996 0.9119
0.9215 2.1552 2.0256 0.9443 1.4099 1.2343 0.7139 0.7132 0.7842 0.8241 0.6278 0.4995 0.6726 0.8532 0.7432 1.0911 1.5164 0.9172 0.7943 0.7935 1.5027 0.8439 0.6660 0.8916 1.6988 0.9954 0.8027 0.9064 1.1603 1.0142 0.7554 1.8441 1.6966 0.6722 1.2829 1.0044 1.1653 0.6603 1.4325 0.5533 0.5929 0.9374 0.6916 0.5427 1.0836 1.4699 0.9297 0.8578 1.0124 0.9529 0.7113 0.9797 0.5921 1.0805 1.1327 0.9226 0.8643 1.0829 0.8913
0.8832 2.1485 1.9530 0.9443 1.3525 1.1867 0.7193 0.6815 0.7812 0.8571 0.6272 0.4814 0.6471 0.8303 0.7614 1.0655 1.6355 0.9542 0.7860 0.7903 1.4404 0.8627 0.6360 0.9071 1.6316 0.9870 0.7988 0.8843 1.1335 0.9495 0.7493 1.7709 1.6890 0.6540 1.2652 0.9769 1.1637 0.6668 1.4640 0.5615 0.5521 0.8904 0.6502 0.5357 1.1170 1.4452 0.9198 0.9403 0.9834 0.9457 0.7186 0.9687 0.5898 1.1053 1.1197 0.8994 0.8854 1.0605 0.9011
0.9221 2.1533 1.9225 0.9037 1.4300 1.1366 0.6883 0.6645 0.7648 0.8010 0.5972 0.4741 0.6124 0.8098 0.7136 1.0441 1.4539 1.0003 0.8077 0.7544 1.3706 0.8343 0.6299 0.8927 1.6035 0.9227 0.7652 0.8864 1.1000 0.9243 0.7525 1.7711 1.6257 0.6570 1.2099 0.9040 1.2402 0.6379 1.4022 0.5385 0.5403 0.8748 0.6698 0.5224 1.0151 1.4347 0.8568 0.8364 0.9714 1.0253 0.6597 0.9454 0.5815 1.0209 1.0879 0.8744 0.8578 0.9724 0.8762
0.8435 2.0884 1.8687 0.8884 1.5043 1.0834 0.6692 0.6443 0.7847 0.8195 0.5830 0.4554 0.6312 0.7977 0.6957 1.0511 1.6129 0.8755 0.7329 0.7322 1.3981 0.7954 0.6239 0.8658 1.5743 0.8903 0.7460 0.8221 1.0670 0.9250 0.7047 1.6922 1.6634 0.6129 1.1415 0.9360 1.2336 0.6329 1.4212 0.5214 0.5495 0.8985 0.6267 0.5169 1.0809 1.4204 0.8836 0.8982 0.9908 0.9092 0.6630 0.9145 0.5219 0.9725 1.0437 0.8441 0.7964 1.0116 0.8425
0.8401 1.9482 1.8502 0.8708 1.7060 1.0645 0.6442 0.6439 0.7492 0.8020 0.5779 0.4462 0.6519 0.7607 0.6596 1.0065 1.2936 0.8814 0.7021 0.7388 1.3131 0.7595 0.5971 0.7867 1.5101 0.8712 0.7231 0.8260 0.9985 0.8879 0.7234 1.5896 1.6731 0.5953 1.1702 0.9006 1.2596 0.6194 1.3530 0.5098 0.5377 0.8913 0.6119 0.4865 0.9947 1.3727 0.7760 0.7906 0.8986 0.8132 0.6539 0.8918 0.5279 0.9516 0.9669 0.8435 0.7782 0.9743 0.8058
0.9127 2.0346 1.8509 0.8645 2.0001 1.0755 0.6286 0.6253 0.7239 0.7899 0.5733 0.4594 0.6805 0.7775 0.6826 0.9835 1.5310 0.8228 0.7327 0.6930 1.3185 0.7645 0.6057 0.8316 1.4387 0.8634 0.7171 0.8625 1.0270 0.9012 0.7709 1.6436 1.7807 0.5686 1.1806 0.8805 1.3822 0.6069 1.3181 0.5369 0.5177 0.9105 0.6137 0.4953 0.9705 1.2791 0.8068 0.8457 0.9095 0.9510 0.6309 0.8580 0.5480 0.9534 0.9681 0.8352 0.7763 0.9397 0.8240
0.8469 1.9467 1.8065 0.8341 1.9761 1.0406 0.6082 0.6224 0.7156 0.7836 0.5455 0.4366 0.6785 0.8101 0.6885 0.9546 1.6770 0.8148 0.6931 0.6855 1.2971 0.8122 0.5770 0.8260 1.4798 0.7870 0.6809 0.8171 1.0012 0.8654 0.7050 1.5919 1.7634 0.5605 1.1143 0.8651 1.3122 0.5922 1.2950 0.5002 0.5071 0.9390 0.5993 0.4875 1.0176 1.2669 0.7864 0.9459 0.8558 0.9407 0.6183 0.8344 0.5295 0.8814 0.9479 0.7997 0.7547 0.9234 0.7947
0.8112 1.9385 1.7314 0.8510 1.7612 0.9657 0.6082 0.6400 0.6685 0.7443 0.5111 0.4127 0.6926 0.8023 0.6488 0.9155 1.3939 0.7656 0.6891 0.7011 1.2086 0.7462 0.5584 0.8212 1.4764 0.7993 0.6992 0.8350 1.0240 0.8283 0.6663 1.5909 1.7037 0.5246 1.0913 0.8401 1.2048 0.5572 1.2992 0.4664 0.5155 0.9883 0.5933 0.4656 0.9773 1.1482 0.7402 0.7989 0.8362 0.8943 0.6336 0.8237 0.5185 0.9379 0.9194 0.7936 0.8184 0.8747 0.7581
0.8093 1.8402 1.7371 0.8417 1.5914 0.9390 0.5996 0.6039 0.7038 0.7177 0.5140 0.4212 0.6888 0.7657 0.6455 0.8832 1.2401 0.8412 0.7781 0.6698 1.1695 0.7575 0.5408 0.8904 1.4064 0.7813 0.6833 0.8149 1.0141 0.8192 0.6652 1.4982 1.6284 0.5319 1.0460 0.7981 1.2414 0.5720 1.2521 0.4624 0.5150 0.9683 0.5882 0.4666 0.9186 1.1363 0.6943 0.7428 0.8707 1.0255 0.5972 0.8400 0.5119 0.9555 0.8747 0.7766 0.8260 0.8545 0.7399
0.7444 1.8179 1.6225 0.8073 1.2391 0.8982 0.5621 0.6183 0.6788 0.6979 0.4986 0.4107 0.5903 0.6675 0.6124 0.8556 1.4624 0.7607 0.6851 0.6981 1.1425 0.7426 0.5432 0.8181 1.4189 0.7533 0.6509 0.7405 0.9385 0.7377 0.6205 1.4930 1.4091 0.5362 0.9485 0.7729 1.0736 0.5557 1.1927 0.4649 0.4995 0.7943 0.5491 0.4370 0.8842 1.0915 0.6815 0.8867 0.8387 0.9099 0.6068 0.8020 0.5029 0.8801 0.8581 0.7424 0.7441 0.8367 0.7217
0.6597 1.7846 1.5306 0.7774 1.0555 0.8917 0.5457 0.6057 0.6170 0.6719 0.4790 0.3903 0.5576 0.6619 0.6092 0.8415 1.3116 0.6870 0.6010 0.6551 1.1084 0.6533 0.5174 0.7599 1.3684 0.7454 0.6242 0.7015 0.8416 0.7107 0.5950 1.4674 1.3018 0.5346 0.9188 0.7729 0.9188 0.5182 1.2089 0.4322 0.4646 0.7506 0.5406 0.4450 0.8581 1.0729 0.7195 0.7353 0.8262 0.7736 0.5816 0.7887 0.4678 0.8313 0.8150 0.7420 0.6660 0.8208 0.7282
0.7023 1.7942 1.5445 0.7419 1.1054 0.9199 0.5266 0.5487 0.5920 0.6790 0.4739 0.3919 0.4951 0.6716 0.5811 0.8448 1.2493 0.7730 0.6361 0.6276 1.1116 0.6472 0.5183 0.7581 1.3237 0.6908 0.6176 0.7097 0.8609 0.7135 0.6045 1.4523 1.3101 0.4880 0.9279 0.7614 0.9470 0.5089 1.1926 0.4336 0.4455 0.7304 0.5463 0.4208 0.8593 1.1254 0.7122 0.6945 0.7858 0.8271 0.5690 0.7435 0.4516 0.8112 0.7928 0.7022 0.6627 0.8045 0.7044
0.6860 1.6974 1.4977 0.7112 1.0736 0.8898 0.5231 0.5583 0.5764 0.6498 0.4670 0.3672 0.4781 0.6751 0.5793 0.8081 1.1431 0.6581 0.5960 0.6103 1.1156 0.6222 0.5225 0.7771 1.3003 0.7043 0.6126 0.7179 0.8245 0.6910 0.6077 1.4285 1.2257 0.4886 0.8865 0.7447 0.9027 0.4947 1.1605 0.4084 0.4336 0.7080 0.5348 0.4140 0.8061 1.0223 0.6567 0.6644 0.7688 0.8215 0.5355 0.7461 0.4464 0.8299 0.7871 0.7247 0.6781 0.7809 0.6718
0.6527 1.7022 1.5153 0.6818 1.0103 0.8286 0.5007 0.5473 0.5597 0.6176 0.4536 0.3782 0.4738 0.6420 0.5493 0.7861 1.4357 0.6672 0.5823 0.6086 1.0114 0.6480 0.4948 0.6966 1.3039 0.6694 0.5904 0.6842 0.8070 0.6772 0.5689 1.4334 1.2094 0.4821 0.8521 0.7255 0.8613 0.4826 1.1212 0.4268 0.4201 0.6903 0.5388 0.4084 0.8185 0.9931 0.6567 0.7921 0.7956 0.7642 0.5573 0.7147 0.4482 0.7772 0.7536 0.6772 0.6462 0.7517 0.6720
0.6814 1.6929 1.4514 0.7043 1.1953 0.8390 0.5048 0.5339 0.5738 0.6160 0.4445 0.3672 0.5001 0.6471 0.5615 0.7494 1.2745 0.6624 0.5858 0.5829 1.0742 0.6081 0.5005 0.7048 1.3360 0.6792 0.6071 0.6813 0.8187 0.6912 0.5833 1.4100 1.2767 0.4547 0.8275 0.6952 1.0137 0.4751 1.0854 0.4111 0.4152 0.7030 0.5087 0.3915 0.7841 0.9721 0.6511 0.7300 0.7397 0.7867 0.5604 0.6948 0.4572 0.7985 0.7447 0.6777 0.6654 0.7328 0.6671
0.6727 1.5693 1.4673 0.7177 1.1325 0.7970 0.4901 0.5433 0.5327 0.5994 0.4352 0.3602 0.4530 0.6258 0.5297 0.7526 1.2880 0.6459 0.5944 0.6145 0.9531 0.6019 0.4713 0.7005 1.2241 0.6753 0.5678 0.6965 0.8016 0.6951 0.5944 1.3121 1.2671 0.4794 0.8494 0.6952 0.9202 0.4566 1.0800 0.3970 0.4034 0.6643 0.5149 0.3915 0.7639 0.9546 0.5983 0.7521 0.7186 0.8025 0.5243 0.6914 0.4486 0.7828 0.7086 0.6954 0.6555 0.7243 0.6413
0.6558 1.6628 1.4238 0.6825 0.9215 0.7672 0.4582 0.5204 0.5055 0.5894 0.4236 0.3524 0.4064 0.5878 0.5004 0.7225 1.5662 0.6802 0.6092 0.5812 0.9474 0.6341 0.4367 0.7279 1.1997 0.6496 0.5608 0.6409 0.7644 0.6979 0.5600 1.3467 1.1744 0.4393 0.7726 0.6692 0.7881 0.4501 1.1028 0.4156 0.3836 0.6118 0.4872 0.3831 0.7828 0.9371 0.6276 0.8383 0.7105 0.8677 0.5340 0.6744 0.4322 0.7825 0.6927 0.6592 0.6478 0.7186 0.6524
0.6286 1.6164 1.4314 0.6768 1.0480 0.7704 0.4549 0.5244 0.5328 0.6109 0.4102 0.3435 0.4362 0.5789 0.5079 0.7306 1.2453 0.6016 0.5414 0.5758 0.9303 0.5496 0.4451 0.6727 1.2098 0.6394 0.5545 0.6063 0.7905 0.6588 0.5301 1.3411 1.2494 0.4257 0.7775 0.6725 0.9222 0.4356 1.0634 0.3806 0.3863 0.6201 0.4715 0.3761 0.7451 0.9009 0.5845 0.7009 0.7215 0.7286 0.5217 0.6468 0.4089 0.7408 0.6842 0.6278 0.5900 0.6931 0.6435
0.7304 1.5917 1.3736 0.6588 1.3112 0.7436 0.4622 0.5072 0.5534 0.6043 0.4010 0.3395 0.5300 0.5973 0.4987 0.7235 1.0983 0.5846 0.5342 0.5667 0.9119 0.5639 0.4368 0.6830 1.2269 0.6098 0.5542 0.6087 0.8971 0.7102 0.5477 1.2910 1.3768 0.4367 0.7904 0.6637 1.1358 0.4391 1.0476 0.3720 0.3826 0.7046 0.4675 0.3782 0.7653 0.9171 0.5980 0.6140 0.6898 0.7377 0.5204 0.6490 0.3955 0.7281 0.6865 0.6259 0.5740 0.6809 0.6115
0.7419 1.5999 1.5205 0.6470 1.5994 0.7248 0.4594 0.5121 0.5760 0.6234 0.3870 0.3319 0.6036 0.6292 0.5014 0.6738 1.2663 0.6252 0.5465 0.5667 0.8946 0.5726 0.4186 0.7299 1.1464 0.5952 0.5395 0.6680 0.8943 0.7473 0.5815 1.2912 1.4939 0.4330 0.8038 0.6770 1.3529 0.4066 1.0429 0.3879 0.3804 0.7680 0.4756 0.3697 0.7234 0.8532 0.5582 0.6923 0.6852 0.8141 0.4821 0.6639 0.3829 0.7165 0.6790 0.6117 0.6015 0.6598 0.6074
0.7389 1.5276 1.4786 0.6109 1.7115 0.7049 0.4341 0.4961 0.5644 0.5554 0.3857 0.3288 0.6360 0.6517 0.4919 0.6560 1.2572 0.5918 0.4823 0.5452 0.8570 0.5399 0.4166 0.6176 1.1601 0.5867 0.5248 0.6807 0.8731 0.7937 0.5575 1.2847 1.5512 0.3999 0.7616 0.6205 1.3770 0.4045 0.9925 0.3705 0.3728 0.8382 0.4624 0.3637 0.7092 0.8453 0.5615 0.6884 0.6809 0.6670 0.5081 0.6387 0.3816 0.6869 0.6231 0.6113 0.6148 0.6378 0.6001
0.6663 1.4939 1.3692 0.6340 1.4060 0.6865 0.4237 0.4822 0.5284 0.5641 0.3771 0.3411 0.4924 0.5815 0.4782 0.6313 1.4854 0.5553 0.4899 0.5368 0.8343 0.5170 0.4046 0.6170 1.1396 0.5821 0.5277 0.5706 0.7943 0.6876 0.5115 1.2237 1.3391 0.4287 0.7421 0.6345 1.1760 0.3982 0.9995 0.3835 0.3670 0.6551 0.4366 0.3447 0.7562 0.8128 0.6066 0.7920 0.6671 0.6655 0.4935 0.6202 0.3591 0.6702 0.6237 0.5696 0.5610 0.6484 0.5870
0.6053 1.5080 1.3220 0.5953 0.9792 0.6534 0.4291 0.4815 0.4838 0.5400 0.3832 0.3141 0.3979 0.5394 0.4600 0.6256 1.1857 0.5575 0.4962 0.5390 0.8233 0.5129 0.4059 0.6673 1.1200 0.5456 0.5116 0.5811 0.7022 0.6145 0.5227 1.2351 1.0887 0.3875 0.7072 0.6087 0.9051 0.3950 0.9957 0.3655 0.3479 0.5862 0.4276 0.3398 0.6525 0.7866 0.5278 0.6654 0.6352 0.6941 0.4957 0.5699 0.3545 0.6883 0.6282 0.5637 0.5683 0.6502 0.5843
0.5630 1.4856 1.2576 0.5878 0.7584 0.6603 0.4000 0.4665 0.4316 0.5219 0.3714 0.3081 0.3584 0.5170 0.4669 0.6243 1.3983 0.5322 0.4781 0.5312 0.8324 0.5062 0.4077 0.6338 1.0783 0.5578 0.4807 0.5824 0.6686 0.5587 0.5067 1.2058 1.0120 0.3799 0.6581 0.5920 0.7021 0.3867 0.9959 0.3593 0.3336 0.5359 0.4256 0.3451 0.7203 0.7791 0.5940 0.7288 0.5855 0.6723 0.4728 0.5781 0.3742 0.6735 0.6009 0.5809 0.5286 0.6137 0.5702
0.5634 1.4750 1.2399 0.5782 0.8476 0.6670 0.4131 0.4396 0.4395 0.5197 0.3673 0.3072 0.3698 0.5164 0.4590 0.6204 1.2712 0.5149 0.4364 0.5225 0.8042 0.4860 0.3939 0.5635 1.1422 0.5296 0.4974 0.5139 0.6633 0.5809 0.4844 1.2328 0.9994 0.3695 0.6533 0.5945 0.7636 0.3733 1.0223 0.3448 0.3360 0.5216 0.4246 0.3462 0.6891 0.7710 0.5302 0.7002 0.6286 0.5726 0.4972 0.5669 0.3577 0.6312 0.5855 0.5502 0.5042 0.6163 0.5645
0.5705 1.4309 1.2640 0.5856 0.8932 0.6246 0.3869 0.4590 0.4257 0.5188 0.3646 0.2974 0.3513 0.4981 0.4483 0.6100 1.1200 0.5243 0.4701 0.5028 0.7734 0.4785 0.3962 0.5901 1.0970 0.5409 0.4733 0.5572 0.6708 0.6038 0.5040 1.1797 1.0400 0.3780 0.6400 0.5954 0.7642 0.3701 0.9334 0.3441 0.3188 0.5313 0.4118 0.3452 0.6457 0.7551 0.5105 0.6276 0.6149 0.6299 0.4681 0.5515 0.3573 0.6501 0.5843 0.5714 0.5231 0.6021 0.5508
0.5731 1.4571 1.2520 0.5923 0.8023 0.6194 0.3843 0.4496 0.4127 0.4935 0.3495 0.2936 0.3475 0.5117 0.4379 0.5913 1.4276 0.5534 0.4731 0.5134 0.7571 0.4774 0.3859 0.6639 1.0468 0.5637 0.4682 0.5998 0.6747 0.5639 0.5098 1.2004 1.0483 0.3756 0.6360 0.5549 0.6918 0.3639 0.9347 0.3458 0.3197 0.5473 0.4190 0.3294 0.7008 0.7682 0.5844 0.7331 0.6021 0.6810 0.4701 0.5586 0.3263 0.7071 0.5817 0.5844 0.5659 0.6015 0.5566
0.5206 1.4128 1.1673 0.5642 0.6853 0.6092 0.3748 0.4179 0.4116 0.4871 0.3548 0.2777 0.3393 0.5028 0.4361 0.5952 1.1015 0.5157 0.4852 0.4806 0.7630 0.4808 0.3789 0.5961 1.0820 0.5259 0.4650 0.5367 0.6175 0.5235 0.4701 1.1619 0.9230 0.3625 0.6254 0.5515 0.6461 0.3437 0.9041 0.3214 0.3163 0.5062 0.4007 0.3182 0.6366 0.7293 0.5052 0.6072 0.5888 0.6692 0.4538 0.5641 0.3422 0.6272 0.5718 0.5434 0.5132 0.5779 0.5463
0.4999 1.4009 1.1747 0.5790 0.6737 0.5967 0.3695 0.4324 0.4090 0.4935 0.3345 0.2917 0.3303 0.4881 0.4335 0.5718 1.3554 0.4965 0.4422 0.4767 0.7604 0.4604 0.3716 0.5648 1.0494 0.5265 0.4708 0.5133 0.6285 0.5175 0.4447 1.1304 0.9574 0.3626 0.6009 0.5510 0.6173 0.3431 0.9040 0.3436 0.3235 0.5125 0.4086 0.3283 0.6346 0.6945 0.5324 0.6965 0.5625 0.6018 0.4532 0.5489 0.3369 0.6295 0.5734 0.5377 0.5313 0.5805 0.5453
0.5148 1.4092 1.2413 0.5457 0.7033 0.5855 0.3487 0.4319 0.4003 0.4759 0.3375 0.2833 0.3312 0.4808 0.4123 0.5303 1.2280 0.4900 0.4450 0.4830 0.7498 0.4648 0.3641 0.6127 1.0263 0.5088 0.4501 0.5567 0.6288 0.5379 0.4661 1.1410 0.9780 0.3584 0.5863 0.5388 0.6281 0.3352 0.9105 0.3273 0.3135 0.4969 0.4023 0.3160 0.6287 0.6807 0.5150 0.6384 0.5618 0.6387 0.4346 0.5486 0.3187 0.6359 0.5663 0.5503 0.5308 0.5687 0.5312
0.5247 1.3817 1.2033 0.5484 0.7842 0.5864 0.3485 0.4163 0.3919 0.4658 0.3408 0.2663 0.3352 0.4583 0.4046 0.5629 1.5130 0.4640 0.4361 0.4837 0.7328 0.4639 0.3526 0.5383 1.0593 0.5025 0.4499 0.5214 0.6700 0.5568 0.4499 1.1327 1.0039 0.3512 0.6041 0.5138 0.6738 0.3270 0.8991 0.3423 0.3008 0.4881 0.3862 0.3138 0.6376 0.6850 0.5650 0.7432 0.6005 0.5774 0.4409 0.5365 0.3146 0.6119 0.5499 0.5303 0.4848 0.5475 0.5275
0.5553 1.3512 1.2021 0.5615 0.9217 0.5951 0.3438 0.4114 0.4113 0.4790 0.3207 0.2640 0.3713 0.4467 0.4023 0.5288 1.3967 0.4853 0.4408 0.4461 0.7321 0.4380 0.3570 0.5290 1.0342 0.4996 0.4426 0.5239 0.6712 0.6089 0.4486 1.0961 1.0679 0.3607 0.6151 0.5281 0.7646 0.3230 0.8724 0.3139 0.2990 0.4972 0.3811 0.2995 0.5955 0.6495 0.5090 0.7137 0.5405 0.5407 0.4634 0.5239 0.3296 0.6001 0.5574 0.5328 0.5173 0.5593 0.5405
0.5584 1.3630 1.2398 0.5431 1.0789 0.5780 0.3551 0.4076 0.4216 0.4887 0.3336 0.2588 0.3817 0.4801 0.4138 0.5334 1.5540 0.5231 0.4348 0.4497 0.7299 0.4230 0.3544 0.5475 1.0053 0.5069 0.4453 0.5535 0.6665 0.6134 0.4544 1.1264 1.1036 0.3520 0.6322 0.5067 0.8964 0.3246 0.8786 0.3236 0.2904 0.5329 0.3720 0.3011 0.6503 0.6631 0.5637 0.7937 0.5439 0.5713 0.4449 0.5255 0.3216 0.6442 0.5235 0.5269 0.5661 0.5495 0.5185
0.5526 1.3331 1.1856 0.5493 0.9598 0.5829 0.3368 0.3951 0.3999 0.4772 0.3411 0.2698 0.3792 0.4667 0.4073 0.5384 1.2960 0.4892 0.4365 0.4612 0.7089 0.4388 0.3432 0.5450 1.0473 0.5051 0.4270 0.5342 0.6613 0.5607 0.4536 1.1250 1.0638 0.3460 0.6136 0.5111 0.7974 0.3235 0.8602 0.3324 0.2946 0.5268 0.3695 0.3026 0.5987 0.6593 0.4861 0.7131 0.5506 0.5784 0.4259 0.5156 0.3120 0.6250 0.5321 0.5298 0.5189 0.5375 0.5139
0.4849 1.3105 1.1300 0.5202 0.7934 0.5765 0.3351 0.3995 0.3982 0.4646 0.3540 0.2640 0.3341 0.4577 0.3974 0.5102 1.1295 0.4276 0.3917 0.4655 0.7074 0.4122 0.3399 0.5288 1.0245 0.5079 0.4528 0.4835 0.5823 0.5128 0.4280 1.0906 0.9486 0.3335 0.5922 0.5101 0.6915 0.3106 0.8392 0.3397 0.2965 0.4816 0.3878 0.3095 0.5646 0.6208 0.4662 0.6264 0.5370 0.5113 0.4367 0.5051 0.3056 0.6178 0.5245 0.5140 0.4842 0.5292 0.5054
0.4606 1.2871 1.0863 0.5158 0.7704 0.5820 0.3209 0.4163 0.3432 0.4708 0.3732 0.2680 0.3165 0.4469 0.3994 0.4963 1.0486 0.4076 0.3797 0.4391 0.7078 0.3690 0.3413 0.5369 1.0085 0.4931 0.4326 0.5231 0.5659 0.4696 0.4309 1.0695 0.9121 0.3339 0.5798 0.4938 0.5962 0.3108 0.8687 0.3394 0.2875 0.4549 0.3747 0.3100 0.5675 0.5987 0.4477 0.5923 0.5199 0.5108 0.4237 0.4859 0.2898 0.5815 0.5167 0.5266 0.4880 0.5124 0.5043
0.5095 1.3179 1.1162 0.5087 0.9947 0.5843 0.3208 0.4381 0.3891 0.4583 0.3880 0.2748 0.3616 0.4448 0.3878 0.4988 0.9286 0.4435 0.3812 0.4406 0.6994 0.3949 0.3304 0.5342 1.0367 0.5140 0.4088 0.4818 0.5858 0.5062 0.4356 1.0854 0.9959 0.3279 0.6006 0.5008 0.7847 0.3192 0.8409 0.3396 0.3001 0.4818 0.3732 0.3049 0.5421 0.6023 0.4117 0.5570 0.5079 0.5064 0.4290 0.5290 0.2863 0.5853 0.5328 0.5126 0.4430 0.5102 0.5066
0.5082 1.2358 1.1132 0.4897 1.0125 0.5674 0.3221 0.3982 0.3876 0.4992 0.4098 0.2599 0.3727 0.4251 0.3672 0.4759 1.6518 0.4178 0.3710 0.4580 0.6771 0.4064 0.3319 0.5187 0.9739 0.5047 0.4122 0.4587 0.5912 0.5170 0.4129 1.0580 0.9850 0.3337 0.6073 0.5056 0.8049 0.3065 0.8927 0.3965 0.2910 0.4730 0.3568 0.3113 0.5780 0.5564 0.5233 0.8634 0.5372 0.4947 0.4311 0.5168 0.3160 0.5815 0.5058 0.5101 0.4404 0.5182 0.4728
0.5021 1.2498 1.1153 0.4858 1.0560 0.5545 0.3164 0.3823 0.3682 0.4989 0.4265 0.2646 0.3806 0.4148 0.3619 0.4757 1.0841 0.4256 0.3994 0.4388 0.6827 0.4074 0.3223 0.5033 0.9942 0.4854 0.3942 0.4704 0.6020 0.5148 0.4183 1.0360 1.0436 0.3305 0.5872 0.4858 0.7786 0.3163 0.8438 0.3964 0.2772 0.4673 0.3558 0.3163 0.5455 0.5808 0.4382 0.6318 0.4951 0.5270 0.4154 0.4950 0.3005 0.5477 0.5260 0.4847 0.4435 0.5082 0.4709
0.5106 1.2610 1.0850 0.4821 1.2581 0.5430 0.3264 0.3962 0.4020 0.5241 0.4571 0.2798 0.4356 0.4528 0.3772 0.4663 0.9536 0.4235 0.3935 0.4606 0.6846 0.3675 0.3329 0.5406 1.0207 0.5068 0.3925 0.4857 0.6112 0.4851 0.4234 1.0446 1.0632 0.3082 0.6076 0.4816 0.9569 0.3182 0.9326 0.4249 0.2948 0.5352 0.3553 0.3133 0.5292 0.5507 0.4327 0.5905 0.4938 0.5456 0.4219 0.5085 0.2980 0.5883 0.5291 0.4987 0.4620 0.5111 0.4805
0.5377 1.2703 1.0855 0.4880 1.5002 0.5419 0.3242 0.3795 0.4242 0.5143 0.4680 0.2730 0.4776 0.4678 0.3658 0.4647 1.3717 0.4492 0.4248 0.4546 0.6542 0.4062 0.3186 0.5434 1.0059 0.4944 0.3921 0.5288 0.6335 0.4885 0.4454 1.0405 1.1605 0.2982 0.5989 0.4750 1.0710 0.3147 0.8864 0.4461 0.3036 0.5991 0.3580 0.3237 0.5616 0.5652 0.5083 0.7614 0.5042 0.5867 0.4469 0.5009 0.3067 0.5921 0.5092 0.5030 0.4851 0.5161 0.4741
0.5184 1.2054 1.0715 0.4741 1.2932 0.5345 0.3205 0.3760 0.4103 0.5189 0.4814 0.2683 0.4285 0.4547 0.3722 0.4712 1.0794 0.4537 0.4146 0.4758 0.6401 0.3760 0.3101 0.4883 0.9825 0.4730 0.3768 0.4845 0.6249 0.5002 0.4265 0.9992 1.0934 0.2981 0.5613 0.4787 0.9815 0.3087 0.9147 0.4403 0.2917 0.5259 0.3575 0.3158 0.5512 0.5804 0.4539 0.6629 0.4905 0.5398 0.4191 0.4815 0.3046 0.5342 0.4890 0.4758 0.4543 0.5101 0.4578
0.4202 1.1656 1.0096 0.4484 0.8476 0.5094 0.3006 0.3560 0.3684 0.4810 0.4714 0.2508 0.3486 0.4093 0.3481 0.4546 1.0524 0.3900 0.3646 0.4348 0.6332 0.3600 0.2995 0.4700 0.9605 0.4503 0.3733 0.4305 0.5100 0.4372 0.3646 0.9535 0.8812 0.2909 0.4999 0.4715 0.7152 0.2976 0.8697 0.4071 0.2737 0.4401 0.3537 0.3107 0.5053 0.5382 0.4465 0.6237 0.4687 0.4726 0.4244 0.4662 0.2824 0.5212 0.4718 0.4684 0.4203 0.5051 0.4393
0.3967 1.1565 0.9597 0.4396 0.6977 0.4846 0.2893 0.3570 0.3649 0.4774 0.4615 0.2490 0.3198 0.3975 0.3492 0.4360 0.9531 0.4092 0.3854 0.4528 0.6143 0.3767 0.2916 0.4435 0.9425 0.4428 0.3604 0.4211 0.4842 0.4045 0.3660 0.9273 0.7967 0.2829 0.4833 0.4656 0.6415 0.3019 0.9022 0.3870 0.2711 0.4216 0.3392 0.3116 0.4887 0.5261 0.4074 0.5910 0.4653 0.4880 0.4119 0.4487 0.2622 0.5064 0.4647 0.4524 0.3996 0.5008 0.4330
0.4060 1.1713 0.9061 0.4320 0.6433 0.4936 0.2776 0.3694 0.3383 0.4590 0.4669 0.2470 0.3053 0.3859 0.3383 0.4399 0.9253 0.3978 0.3820 0.4360 0.5888 0.3702 0.2836 0.4492 1.0137 0.4147 0.3611 0.4053 0.4987 0.4078 0.3810 0.9325 0.7817 0.2765 0.4601 0.4555 0.5717 0.2818 0.8729 0.3897 0.2650 0.4022 0.3362 0.3051 0.4988 0.5368 0.4177 0.5942 0.4615 0.4769 0.4216 0.4394 0.2663 0.4725 0.4635 0.4191 0.3836 0.4619 0.4404
0.3909 1.1257 0.8999 0.4260 0.6149 0.4561 0.2656 0.3912 0.3225 0.4407 0.4306 0.2358 0.3015 0.3694 0.3260 0.4280 1.0320 0.4081 0.3865 0.4320 0.5853 0.3467 0.2974 0.4973 0.9060 0.4110 0.3421 0.4245 0.4867 0.3839 0.3704 0.9073 0.7567 0.2719 0.4403 0.4361 0.5379 0.2715 0.8503 0.3561 0.2584 0.4067 0.3181 0.2934 0.4959 0.5346 0.4336 0.6069 0.4942 0.5389 0.3727 0.4284 0.2530 0.4860 0.4421 0.4177 0.4073 0.4614 0.4212
0.3657 1.1344 0.8861 0.4285 0.5467 0.4541 0.2748 0.3376 0.3297 0.4535 0.3893 0.2377 0.2815 0.3797 0.3219 0.4232 1.1726 0.3890 0.4004 0.4121 0.5415 0.3678 0.3019 0.4437 0.9057 0.4004 0.3371 0.4131 0.4620 0.3714 0.3519 0.9236 0.7226 0.2735 0.4172 0.4292 0.5304 0.2775 0.8134 0.3541 0.2529 0.4022 0.3351 0.2867 0.5077 0.5133 0.4344 0.6878 0.4711 0.5216 0.3829 0.4156 0.2704 0.4630 0.4268 0.4232 0.4155 0.4593 0.4286
0.3801 1.1306 0.8831 0.4051 0.6135 0.4293 0.2675 0.3331 0.3303 0.4172 0.3794 0.2222 0.3243 0.3739 0.3293 0.4039 0.8863 0.3934 0.4211 0.4156 0.5452 0.3568 0.2836 0.4366 0.9055 0.4011 0.3184 0.4076 0.4546 0.4064 0.3663 0.8885 0.7618 0.2637 0.4128 0.4275 0.5508 0.2613 0.8064 0.3210 0.2543 0.4251 0.3158 0.2719 0.4559 0.4999 0.3891 0.5503 0.4522 0.5374 0.3806 0.4274 0.2661 0.4564 0.4149 0.4144 0.4020 0.4277 0.4198
0.4512 1.1362 0.9193 0.4017 0.7879 0.4317 0.2539 0.3356 0.3365 0.4080 0.3492 0.2156 0.3688 0.4024 0.3183 0.3964 0.9742 0.4313 0.4438 0.3881 0.5234 0.3915 0.2865 0.5109 0.9048 0.4023 0.3205 0.4393 0.4977 0.4619 0.3872 0.9120 0.8389 0.2791 0.4204 0.4312 0.6571 0.2583 0.7772 0.3034 0.2493 0.4868 0.3135 0.2573 0.4493 0.4914 0.3841 0.5630 0.4352 0.6433 0.3986 0.4356 0.2823 0.4801 0.3974 0.4290 0.4158 0.4449 0.4160
0.4510 1.1002 0.9578 0.4007 0.9921 0.4205 0.2596 0.3501 0.3069 0.3849 0.3260 0.2196 0.3559 0.3891 0.3119 0.3888 0.8831 0.4181 0.3749 0.3781 0.5077 0.3376 0.2655 0.4100 0.8915 0.3749 0.3228 0.4166 0.5092 0.4950 0.3755 0.8679 0.9453 0.2614 0.4517 0.4106 0.6605 0.2577 0.7411 0.3023 0.2318 0.4675 0.3063 0.2545 0.4468 0.4782 0.3961 0.5269 0.4131 0.4592 0.3756 0.3993 0.2518 0.4339 0.3873 0.3815 0.3883 0.4185 0.4029
0.4027 1.0429 0.9801 0.3929 0.9040 0.4001 0.2457 0.3518 0.2779 0.3863 0.2999 0.2202 0.3003 0.3513 0.3058 0.3819 0.9378 0.3543 0.3576 0.3718 0.4993 0.3224 0.2802 0.3846 0.8578 0.3525 0.3052 0.3883 0.4619 0.4394 0.3665 0.8290 0.8780 0.2581 0.4351 0.3993 0.5494 0.2552 0.7025 0.2818 0.2268 0.4056 0.2986 0.2364 0.4462 0.4481 0.3880 0.5273 0.4323 0.4314 0.3637 0.3659 0.2501 0.3967 0.3761 0.3701 0.3520 0.4144 0.3801
0.3834 1.0265 0.9219 0.3733 0.8862 0.4046 0.2452 0.3471 0.2639 0.3744 0.2810 0.2105 0.2506 0.3320 0.3115 0.3963 1.3740 0.3698 0.3855 0.3715 0.4965 0.3749 0.2744 0.3945 0.7922 0.3474 0.3066 0.3486 0.4445 0.3893 0.3311 0.8407 0.8141 0.2498 0.4260 0.3977 0.5297 0.2577 0.7231 0.2804 0.2153 0.3590 0.2824 0.2319 0.4747 0.4534 0.4210 0.7045 0.4159 0.4990 0.3627 0.3623 0.2611 0.3954 0.3687 0.3631 0.3400 0.4108 0.3673
0.3509 1.0509 0.8723 0.3822 0.6922 0.3977 0.2414 0.3347 0.2633 0.3565 0.2600 0.1914 0.2385 0.3250 0.2844 0.3797 1.2696 0.4035 0.3387 0.3697 0.4913 0.3402 0.2596 0.3891 0.8909 0.3448 0.3122 0.3467 0.4263 0.3637 0.3264 0.8533 0.7341 0.2494 0.3861 0.3963 0.4820 0.2306 0.7152 0.2578 0.2107 0.3441 0.2844 0.2255 0.4597 0.4649 0.3791 0.6669 0.4334 0.4683 0.3840 0.3832 0.2559 0.4056 0.3554 0.3647 0.3421 0.4209 0.3824
0.3166 1.0215 0.8057 0.3847 0.5307 0.3749 0.2397 0.3269 0.2737 0.3432 0.2475 0.1930 0.2258 0.3194 0.2932 0.3581 1.0187 0.3736 0.3288 0.3663 0.4685 0.3142 0.2541 0.3946 0.8355 0.3346 0.3048 0.3447 0.3990 0.3182 0.3140 0.8386 0.6355 0.2671 0.3642 0.3818 0.4381 0.2401 0.7237 0.2364 0.2098 0.3251 0.2805 0.2207 0.4383 0.4449 0.3585 0.5525 0.3974 0.4506 0.3703 0.3568 0.2323 0.4048 0.3525 0.3579 0.3366 0.4134 0.3702
0.3220 0.9914 0.7960 0.3621 0.5609 0.3669 0.2434 0.3424 0.2628 0.3355 0.2391 0.1879 0.2307 0.3138 0.2832 0.3576 1.3196 0.3903 0.3647 0.3561 0.4514 0.3463 0.2443 0.3898 0.8023 0.3270 0.2836 0.3459 0.3864 0.3445 0.3132 0.8036 0.6348 0.2608 0.3661 0.3667 0.4977 0.2230 0.6765 0.2439 0.2077 0.3305 0.2740 0.2142 0.4687 0.4551 0.3988 0.6836 0.4069 0.5073 0.3423 0.3639 0.2613 0.3900 0.3425 0.3383 0.3328 0.3829 0.3679
0.3531 1.0071 0.7987 0.3675 0.6231 0.3741 0.2386 0.3485 0.2779 0.3235 0.2334 0.1844 0.2453 0.3193 0.2835 0.3445 0.8208 0.3496 0.3258 0.3394 0.4597 0.2907 0.2446 0.3824 0.8466 0.3325 0.2894 0.3360 0.4257 0.3561 0.3201 0.8025 0.6838 0.2471 0.3564 0.3534 0.5809 0.2191 0.6634 0.2186 0.2080 0.3321 0.2706 0.2155 0.3999 0.4301 0.3534 0.4287 0.3903 0.4297 0.3474 0.3517 0.2610 0.4080 0.3404 0.3585 0.3369 0.3703 0.3712
0.3350 0.9520 0.8245 0.3542 0.6280 0.3660 0.2301 0.3272 0.2650 0.3149 0.2118 0.1728 0.2330 0.3157 0.2897 0.3531 0.8094 0.3212 0.2932 0.3306 0.4459 0.2882 0.2353 0.3762 0.7674 0.3260 0.2898 0.3202 0.4010 0.3462 0.3206 0.7941 0.6649 0.2392 0.3556 0.3560 0.5497 0.2112 0.6137 0.2086 0.2010 0.3267 0.2573 0.2122 0.3861 0.4212 0.3289 0.4467 0.3684 0.4080 0.3297 0.3499 0.2111 0.3995 0.3272 0.3325 0.3088 0.3499 0.3473
0.3098 0.9921 0.7392 0.3515 0.4628 0.3552 0.2158 0.2942 0.2578 0.3254 0.2103 0.1770 0.2198 0.2989 0.2733 0.3402 0.9148 0.3296 0.3190 0.3299 0.4401 0.3050 0.2313 0.3939 0.8550 0.3185 0.2679 0.3519 0.3909 0.3082 0.3197 0.7847 0.5906 0.2496 0.3267 0.3497 0.4541 0.2057 0.6394 0.2084 0.1963 0.3098 0.2593 0.2057 0.3929 0.4036 0.3287 0.4979 0.3845 0.4683 0.3594 0.3488 0.2152 0.3828 0.3260 0.3460 0.3299 0.3650 0.3591
0.3508 0.9507 0.7548 0.3546 0.5807 0.3534 0.2230 0.2876 0.2813 0.3233 0.2020 0.1722 0.2379 0.3216 0.2806 0.3232 0.7393 0.3091 0.2968 0.3134 0.4274 0.2786 0.2318 0.3827 0.7694 0.3179 0.2681 0.3398 0.4484 0.3303 0.3320 0.7851 0.6655 0.2427 0.3449 0.3356 0.5986 0.2044 0.6142 0.1982 0.2003 0.3369 0.2532 0.2022 0.3958 0.3923 0.3147 0.4013 0.3433 0.4311 0.3342 0.3434 0.2050 0.3734 0.3206 0.3452 0.3260 0.3507 0.3479
0.3554 0.9747 0.8012 0.3353 0.6851 0.3467 0.2284 0.2856 0.2909 0.3231 0.1942 0.1802 0.2646 0.3191 0.2669 0.3127 0.9486 0.2834 0.2551 0.3177 0.4282 0.2760 0.2299 0.3568 0.7458 0.3070 0.2694 0.3190 0.4519 0.3642 0.3304 0.7997 0.6889 0.2683 0.3472 0.3455 0.6770 0.1939 0.5891 0.2235 0.2004 0.3451 0.2507 0.1932 0.4011 0.3772 0.3370 0.4913 0.3489 0.3860 0.3182 0.3294 0.1950 0.3538 0.3189 0.3167 0.2831 0.3375 0.3584
0.3687 0.9530 0.7377 0.3458 0.6755 0.3399 0.2123 0.3073 0.2626 0.3110 0.1891 0.1741 0.2494 0.3076 0.2671 0.3109 0.8369 0.3092 0.3048 0.3313 0.4176 0.2932 0.2203 0.3899 0.7446 0.2940 0.2587 0.3443 0.4422 0.3563 0.3362 0.7893 0.6983 0.2525 0.3304 0.3307 0.6125 0.1941 0.5870 0.2118 0.1876 0.3268 0.2447 0.1961 0.3696 0.3688 0.3323 0.4344 0.3388 0.4603 0.3083 0.3199 0.2117 0.3732 0.3065 0.3237 0.3050 0.3255 0.3389
0.3517 0.9207 0.7774 0.3150 0.5753 0.3213 0.2055 0.3086 0.2372 0.3085 0.1850 0.1689 0.2543 0.2940 0.2712 0.3069 0.8676 0.2784 0.2646 0.3059 0.4038 0.2610 0.2258 0.3781 0.7259 0.3047 0.2600 0.3101 0.3845 0.3867 0.3184 0.7499 0.6516 0.2420 0.3221 0.3198 0.5172 0.1914 0.5757 0.2000 0.1820 0.3256 0.2498 0.1967 0.3678 0.3650 0.3170 0.4586 0.3390 0.3938 0.3071 0.3209 0.1951 0.3598 0.2961 0.3173 0.2876 0.3335 0.3230
0.3150 0.8864 0.7329 0.3346 0.5309 0.3248 0.2009 0.2968 0.2368 0.2936 0.1826 0.1619 0.2335 0.3016 0.2622 0.2994 0.7512 0.2720 0.2574 0.2928 0.3993 0.2527 0.2300 0.3423 0.7452 0.2926 0.2622 0.2894 0.3683 0.3336 0.2988 0.7227 0.6176 0.2316 0.3204 0.3111 0.4752 0.1883 0.5487 0.1852 0.1854 0.3232 0.2481 0.1884 0.3568 0.3547 0.2851 0.4056 0.3484 0.3478 0.3156 0.3242 0.1873 0.3452 0.2980 0.3061 0.2730 0.3128 0.3253
0.3070 0.8974 0.7224 0.3300 0.4851 0.3273 0.2021 0.2797 0.2260 0.2735 0.1846 0.1552 0.2189 0.2890 0.2715 0.3045 0.8555 0.2850 0.2734 0.2890 0.3910 0.2560 0.2220 0.3388 0.7364 0.2848 0.2603 0.2910 0.3624 0.3391 0.2871 0.7369 0.5965 0.2169 0.2953 0.3092 0.4317 0.1849 0.5542 0.1820 0.1813 0.3092 0.2356 0.1825 0.3381 0.3488 0.2970 0.4481 0.3402 0.3699 0.3098 0.3032 0.1885 0.3413 0.2930 0.3002 0.2802 0.3336 0.3160
0.2885 0.8948 0.7306 0.3294 0.4274 0.3173 0.1960 0.2600 0.2245 0.2782 0.1757 0.1536 0.1955 0.2787 0.2449 0.2853 0.7260 0.2705 0.2472 0.2969 0.3790 0.2394 0.2075 0.3350 0.7119 0.2894 0.2535 0.2859 0.3582 0.3070 0.2790 0.7281 0.5621 0.2144 0.2838 0.3097 0.4092 0.1763 0.5506 0.1878 0.1726 0.2932 0.2312 0.1814 0.3347 0.3504 0.2936 0.3934 0.3384 0.3247 0.2982 0.3126 0.1778 0.3340 0.2966 0.3018 0.2665 0.3187 0.3181
0.2688 0.8482 0.6546 0.3144 0.3932 0.3100 0.1882 0.2521 0.2109 0.2735 0.1740 0.1541 0.1785 0.2676 0.2354 0.2815 1.0427 0.2691 0.2973 0.2856 0.3814 0.2727 0.2091 0.3526 0.7159 0.2835 0.2457 0.2816 0.3225 0.2723 0.2615 0.6886 0.5127 0.2014 0.2872 0.2996 0.3364 0.1845 0.5484 0.1920 0.1694 0.2681 0.2288 0.1818 0.3764 0.3237 0.3314 0.5159 0.3370 0.4146 0.3018 0.2987 0.1933 0.3490 0.2870 0.2902 0.2831 0.3095 0.3102
0.2700 0.8496 0.7024 0.3165 0.4990 0.3021 0.1784 0.2706 0.2003 0.2576 0.1694 0.1480 0.1817 0.2633 0.2280 0.2844 0.9571 0.2665 0.2639 0.2799 0.3680 0.2649 0.2061 0.3173 0.6878 0.2634 0.2462 0.2734 0.3168 0.3101 0.2629 0.6932 0.5490 0.2028 0.2994 0.2934 0.3639 0.1748 0.5224 0.1776 0.1659 0.2705 0.2189 0.1765 0.3631 0.3332 0.3244 0.4887 0.3168 0.3621 0.3013 0.2926 0.1846 0.3162 0.2788 0.2860 0.2757 0.3071 0.3024
0.3000 0.8158 0.7205 0.3100 0.6336 0.3044 0.1825 0.3010 0.2106 0.2647 0.1652 0.1499 0.2049 0.2675 0.2415 0.2762 0.7098 0.2708 0.2632 0.2823 0.3771 0.2637 0.2060 0.3194 0.6799 0.2636 0.2372 0.2845 0.3107 0.3441 0.2770 0.6798 0.5810 0.2118 0.3016 0.2989 0.4391 0.1786 0.5207 0.1789 0.1705 0.2737 0.2190 0.1706 0.3407 0.3343 0.2818 0.3625 0.3076 0.3714 0.2883 0.2774 0.1814 0.3094 0.2662 0.2913 0.2740 0.2962 0.2983
0.3386 0.8362 0.7042 0.3111 0.5976 0.2957 0.1833 0.2982 0.2113 0.2776 0.1614 0.1443 0.2050 0.2713 0.2386 0.2688 0.6062 0.2828 0.3134 0.2681 0.3568 0.2442 0.2164 0.4334 0.6937 0.2725 0.2251 0.3223 0.3494 0.3868 0.2956 0.6893 0.5889 0.2024 0.2947 0.2888 0.4596 0.1742 0.4939 0.1685 0.1595 0.2781 0.2077 0.1622 0.3070 0.3282 0.2617 0.3276 0.3053 0.5283 0.2798 0.2962 0.1838 0.3624 0.2686 0.2976 0.3065 0.2849 0.3020
0.2865 0.8187 0.6401 0.2926 0.4382 0.3002 0.1792 0.3062 0.2139 0.2482 0.1612 0.1392 0.2040 0.2532 0.2477 0.2640 0.8480 0.2639 0.2687 0.2588 0.3614 0.2383 0.2115 0.3175 0.6775 0.2463 0.2160 0.2747 0.3408 0.3124 0.2655 0.6565 0.5305 0.2263 0.2636 0.2862 0.3678 0.1718 0.4985 0.1691 0.1622 0.2721 0.2116 0.1669 0.3143 0.3097 0.3054 0.4169 0.3244 0.3788 0.2857 0.2760 0.1795 0.2993 0.2677 0.2692 0.2625 0.2893 0.2870
0.2537 0.7808 0.6286 0.3081 0.4131 0.2716 0.1847 0.2945 0.2230 0.2579 0.1594 0.1401 0.2109 0.2552 0.2228 0.2562 0.7365 0.2634 0.2659 0.2668 0.3468 0.2544 0.2008 0.2990 0.6856 0.2421 0.2211 0.2672 0.3450 0.2601 0.2448 0.6579 0.5017 0.2545 0.2616 0.2777 0.3980 0.1657 0.4918 0.1739 0.1701 0.2929 0.2126 0.1647 0.3087 0.3109 0.2687 0.3978 0.2956 0.3711 0.2865 0.2781 0.2038 0.2822 0.2542 0.2718 0.2482 0.2800 0.2848
0.2418 0.7896 0.5981 0.2997 0.4079 0.2829 0.1784 0.2967 0.2364 0.2439 0.1520 0.1374 0.2002 0.2650 0.2214 0.2570 0.7441 0.2990 0.2997 0.2714 0.3348 0.2454 0.1867 0.3446 0.6657 0.2611 0.2241 0.2946 0.3390 0.2364 0.2450 0.6458 0.4951 0.2398 0.2640 0.2762 0.4008 0.1641 0.4939 0.1696 0.1644 0.2825 0.2070 0.1609 0.2976 0.3148 0.3079 0.3943 0.3011 0.4541 0.2855 0.2771 0.1950 0.3192 0.2566 0.2873 0.2866 0.2882 0.2775
0.2205 0.7640 0.5976 0.3042 0.3229 0.2786 0.1714 0.3058 0.2110 0.2458 0.1537 0.1225 0.1748 0.2389 0.2175 0.2581 0.7574 0.2495 0.2636 0.2508 0.3460 0.2472 0.1869 0.2789 0.6666 0.2379 0.2182 0.2275 0.3152 0.2397 0.2294 0.6328 0.4475 0.2329 0.2399 0.2655 0.3247 0.1600 0.5022 0.1510 0.1532 0.2532 0.1977 0.1597 0.3050 0.2981 0.2838 0.3974 0.2896 0.3481 0.2667 0.2647 0.1713 0.2744 0.2388 0.2486 0.2396 0.2726 0.2806
0.2274 0.7482 0.6022 0.2904 0.3653 0.2668 0.1691 0.3020 0.2093 0.2444 0.1473 0.1331 0.1784 0.2357 0.2160 0.2408 0.8115 0.2796 0.2886 0.2375 0.3306 0.2568 0.1921 0.2874 0.6150 0.2306 0.2153 0.2517 0.2964 0.2475 0.2431 0.6206 0.4587 0.2038 0.2382 0.2580 0.3240 0.1601 0.4674 0.1589 0.1647 0.2591 0.2028 0.1557 0.3136 0.2980 0.2842 0.4149 0.2904 0.3741 0.2605 0.2515 0.1926 0.2829 0.2391 0.2607 0.2578 0.2760 0.2833
0.2408 0.7509 0.6132 0.2842 0.4165 0.2645 0.1669 0.2559 0.2031 0.2397 0.1430 0.1260 0.1711 0.2277 0.2204 0.2462 0.8775 0.2372 0.2511 0.2412 0.3192 0.2365 0.1871 0.3051 0.6194 0.2362 0.2027 0.2573 0.2901 0.2534 0.2393 0.6129 0.4777 0.1840 0.2477 0.2657 0.3810 0.1533 0.4464 0.1492 0.1527 0.2437 0.1916 0.1515 0.3133 0.2834 0.2979 0.4450 0.2801 0.3624 0.2622 0.2505 0.1694 0.2944 0.2399 0.2643 0.2447 0.2634 0.2725
0.2597 0.7440 0.5644 0.2773 0.3911 0.2574 0.1563 0.2380 0.1917 0.2278 0.1414 0.1264 0.1852 0.2339 0.2083 0.2368 0.6708 0.3015 0.2880 0.2410 0.3126 0.2547 0.1909 0.3516 0.6125 0.2383 0.1999 0.2677 0.3079 0.2537 0.2422 0.6109 0.4829 0.1823 0.2413 0.2552 0.3414 0.1514 0.4554 0.1493 0.1463 0.2477 0.1908 0.1488 0.2836 0.2993 0.2588 0.3633 0.2688 0.4299 0.2591 0.2566 0.1730 0.3112 0.2315 0.2580 0.2548 0.2679 0.2682
0.2555 0.7078 0.5575 0.2584 0.4189 0.2491 0.1623 0.2217 0.1983 0.2250 0.1385 0.1226 0.1792 0.2352 0.2073 0.2302 0.7473 0.2690 0.2949 0.2309 0.3046 0.2742 0.1814 0.3413 0.5853 0.2354 0.2019 0.2735 0.2987 0.2696 0.2377 0.5708 0.4710 0.1724 0.2262 0.2547 0.3915 0.1492 0.4499 0.1467 0.1449 0.2595 0.1905 0.1452 0.2831 0.2863 0.2737 0.3771 0.2857 0.4178 0.2457 0.2560 0.1928 0.3069 0.2294 0.2589 0.2726 0.2540 0.2516
0.2321 0.7220 0.5478 0.2572 0.3826 0.2454 0.1613 0.2071 0.1860 0.2397 0.1338 0.1215 0.1626 0.2218 0.1990 0.2384 0.9753 0.2885 0.3062 0.2519 0.3088 0.3093 0.1888 0.2819 0.6178 0.2232 0.2044 0.2507 0.2848 0.2466 0.2207 0.5934 0.4492 0.1769 0.2350 0.2484 0.3559 0.1446 0.4476 0.1641 0.1394 0.2383 0.1846 0.1450 0.2894 0.2812 0.2562 0.5224 0.2569 0.4224 0.2550 0.2520 0.2259 0.2656 0.2262 0.2470 0.2462 0.2579 0.2653
0.2124 0.7023 0.5272 0.2512 0.3344 0.2460 0.1555 0.2045 0.1903 0.2284 0.1365 0.1167 0.1838 0.2081 0.1993 0.2189 0.6706 0.2258 0.2496 0.2349 0.2969 0.2327 0.1692 0.2766 0.5589 0.2177 0.1876 0.2297 0.2652 0.2208 0.2144 0.5572 0.4279 0.1700 0.2246 0.2436 0.3333 0.1391 0.4446 0.1440 0.1461 0.2472 0.1768 0.1426 0.2692 0.2622 0.2626 0.3483 0.2521 0.3504 0.2399 0.2390 0.1744 0.2584 0.2215 0.2371 0.2217 0.2505 0.2498
0.2297 0.6855 0.5568 0.2496 0.3885 0.2394 0.1568 0.2069 0.1988 0.2069 0.1314 0.1134 0.1895 0.2183 0.1889 0.2145 0.6833 0.2298 0.2372 0.2328 0.3009 0.2401 0.1723 0.2972 0.5795 0.2129 0.1873 0.2429 0.2646 0.2491 0.2300 0.5591 0.4364 0.1646 0.2220 0.2301 0.4099 0.1337 0.4259 0.1387 0.1407 0.2491 0.1744 0.1352 0.2534 0.2611 0.2444 0.3526 0.2666 0.3572 0.2336 0.2260 0.1762 0.2730 0.2202 0.2347 0.2357 0.2407 0.2374
0.2586 0.6892 0.5268 0.2571 0.5014 0.2380 0.1500 0.2087 0.2111 0.2180 0.1286 0.1156 0.2091 0.2234 0.1907 0.2061 0.7224 0.2272 0.2489 0.2223 0.2893 0.2163 0.1711 0.2747 0.5588 0.2200 0.1942 0.2329 0.3006 0.2547 0.2389 0.5672 0.4935 0.1592 0.2164 0.2419 0.4819 0.1344 0.4014 0.1564 0.1376 0.2577 0.1703 0.1352 0.2699 0.2535 0.2395 0.3758 0.2443 0.3277 0.2372 0.2248 0.1704 0.2744 0.2128 0.2373 0.2344 0.2369 0.2329
0.2271 0.6585 0.5284 0.2484 0.4095 0.2340 0.1516 0.2090 0.2113 0.2054 0.1213 0.1145 0.1808 0.2116 0.1926 0.2050 0.8233 0.2139 0.2131 0.2191 0.2816 0.1941 0.1664 0.2596 0.5535 0.2054 0.1917 0.2164 0.2773 0.2401 0.2181 0.5390 0.4475 0.1605 0.2041 0.2304 0.4477 0.1302 0.4230 0.1523 0.1372 0.2318 0.1703 0.1322 0.2793 0.2430 0.2435 0.4308 0.2527 0.3045 0.2279 0.2148 0.1461 0.2512 0.2073 0.2279 0.2197 0.2357 0.2452
0.1969 0.6168 0.5025 0.2355 0.3256 0.2333 0.1458 0.2100 0.1931 0.2090 0.1244 0.1141 0.1841 0.2037 0.1845 0.1921 0.6667 0.1941 0.1959 0.2117 0.2780 0.2011 0.1566 0.2657 0.5403 0.2031 0.1805 0.2156 0.2449 0.2084 0.2101 0.5048 0.4025 0.1492 0.1964 0.2230 0.3584 0.1332 0.4060 0.1463 0.1399 0.2439 0.1682 0.1291 0.2523 0.2334 0.2275 0.3512 0.2368 0.2965 0.2291 0.2207 0.1361 0.2448 0.2005 0.2299 0.1927 0.2290 0.2303
0.2007 0.6338 0.5240 0.2226 0.3380 0.2206 0.1379 0.2035 0.1640 0.1974 0.1175 0.1049 0.1309 0.1919 0.1800 0.1974 0.6477 0.2211 0.2246 0.1974 0.2668 0.2081 0.1539 0.2517 0.5701 0.2023 0.1892 0.2116 0.2306 0.2002 0.1984 0.5188 0.4052 0.1546 0.2090 0.2212 0.2930 0.1263 0.3880 0.1192 0.1240 0.1950 0.1645 0.1243 0.2399 0.2385 0.2269 0.3358 0.2345 0.3321 0.2449 0.2135 0.1490 0.2542 0.1986 0.2261 0.2166 0.2286 0.2292
0.1978 0.6252 0.4964 0.2332 0.3485 0.2165 0.1341 0.2074 0.1634 0.1922 0.1156 0.1091 0.1390 0.1896 0.1809 0.1904 0.7242 0.2174 0.2266 0.2028 0.2576 0.1934 0.1529 0.2598 0.5419 0.2048 0.1734 0.2008 0.2397 0.2185 0.2012 0.4845 0.4036 0.1418 0.1953 0.2130 0.2882 0.1316 0.3920 0.1255 0.1273 0.2015 0.1605 0.1248 0.2480 0.2298 0.2164 0.3843 0.2314 0.3224 0.2302 0.2092 0.1389 0.2761 0.1992 0.2295 0.2158 0.2195 0.2319
0.2106 0.6305 0.5189 0.2329 0.3875 0.2191 0.1294 0.2116 0.1547 0.1867 0.1132 0.0997 0.1574 0.1873 0.1705 0.1834 0.6410 0.1813 0.1947 0.2003 0.2656 0.1776 0.1442 0.2554 0.5455 0.1955 0.1705 0.1979 0.2270 0.2460 0.2089 0.5076 0.3951 0.1440 0.1996 0.2104 0.3188 0.1221 0.3720 0.1234 0.1227 0.2034 0.1522 0.1196 0.2277 0.2124 0.2337 0.3056 0.2218 0.2884 0.2423 0.2006 0.1280 0.2555 0.1918 0.2253 0.1945 0.2135 0.2242
0.2184 0.6130 0.5133 0.2152 0.4828 0.2068 0.1315 0.2071 0.1606 0.1780 0.1072 0.1001 0.1865 0.1928 0.1665 0.1858 0.7080 0.2220 0.1835 0.1940 0.2570 0.1763 0.1366 0.2326 0.4999 0.1934 0.1716 0.2114 0.2358 0.2421 0.2150 0.4857 0.4475 0.1397 0.2015 0.2065 0.3767 0.1205 0.3625 0.1233 0.1205 0.2332 0.1538 0.1149 0.2366 0.2263 0.2097 0.3490 0.2282 0.2558 0.2140 0.1914 0.1295 0.2560 0.1917 0.2165 0.1971 0.2013 0.2159
0.2436 0.6169 0.5240 0.2225 0.6352 0.2049 0.1317 0.1893 0.1770 0.1987 0.1064 0.1001 0.2014 0.2031 0.1648 0.1843 0.7260 0.2006 0.1816 0.1961 0.2426 0.1837 0.1430 0.2389 0.5119 0.1877 0.1732 0.2021 0.2851 0.2497 0.2146 0.4959 0.5451 0.1366 0.2141 0.2112 0.4940 0.1128 0.3600 0.1278 0.1188 0.2499 0.1479 0.1129 0.2386 0.2104 0.2192 0.3740 0.2194 0.2642 0.2214 0.1952 0.1411 0.2486 0.1860 0.2063 0.2011 0.2059 0.2190
0.2359 0.5987 0.5375 0.2224 0.6602 0.2035 0.1266 0.1803 0.1715 0.1872 0.1073 0.1016 0.2105 0.2086 0.1686 0.1754 0.6829 0.1771 0.1848 0.1837 0.2502 0.1802 0.1429 0.2282 0.5277 0.1777 0.1847 0.1999 0.3038 0.2384 0.1997 0.4853 0.5846 0.1360 0.2107 0.1984 0.4937 0.1116 0.3566 0.1316 0.1188 0.2699 0.1502 0.1096 0.2278 0.2069 0.2384 0.3230 0.2118 0.2649 0.2237 0.1934 0.1320 0.2473 0.1843 0.1987 0.2113 0.1976 0.2120
0.2218 0.5668 0.4680 0.2156 0.6778 0.1985 0.1277 0.1734 0.1822 0.2138 0.1051 0.0996 0.2082 0.1966 0.1585 0.1680 0.7069 0.1704 0.1635 0.1837 0.2341 0.1712 0.1353 0.2094 0.4923 0.1729 0.1527 0.1729 0.2934 0.2115 0.1785 0.4705 0.5453 0.1370 0.2070 0.1950 0.5341 0.1116 0.3411 0.1367 0.1197 0.2603 0.1433 0.1106 0.2233 0.1948 0.2000 0.3556 0.2089 0.2239 0.2077 0.1841 0.1222 0.2140 0.1751 0.1887 0.1647 0.1914 0.1989
0.2321 0.5675 0.4954 0.2086 0.7855 0.1994 0.1288 0.1684 0.1746 0.1992 0.1033 0.0967 0.2088 0.1965 0.1516 0.1695 0.7723 0.1834 0.1572 0.1789 0.2262 0.1640 0.1286 0.2152 0.4573 0.1709 0.1515 0.1828 0.2971 0.2250 0.1839 0.4665 0.5657 0.1311 0.2165 0.1910 0.5913 0.1118 0.3471 0.1342 0.1158 0.2610 0.1416 0.1046 0.2093 0.1965 0.2025 0.3631 0.2088 0.2280 0.1869 0.1763 0.1153 0.2144 0.1719 0.1882 0.1750 0.1840 0.1986
0.2403 0.5578 0.5038 0.1948 0.8129 0.1945 0.1286 0.1885 0.1709 0.1790 0.0968 0.1021 0.2107 0.2128 0.1625 0.1596 0.5187 0.2130 0.1795 0.1760 0.2282 0.1605 0.1265 0.2684 0.4856 0.1717 0.1605 0.2171 0.2825 0.2414 0.1941 0.4394 0.5462 0.1317 0.2256 0.1906 0.6338 0.1084 0.3258 0.1131 0.1111 0.2719 0.1368 0.1008 0.1921 0.2026 0.2022 0.2712 0.1934 0.2772 0.2003 0.1859 0.1125 0.2565 0.1713 0.1930 0.2354 0.1881 0.1991
0.2284 0.5218 0.5120 0.1884 0.6993 0.1860 0.1200 0.2019 0.1477 0.1665 0.0954 0.0916 0.1585 0.1929 0.1616 0.1640 0.6678 0.1958 0.1644 0.1700 0.2226 0.1483 0.1291 0.2110 0.4738 0.1682 0.1549 0.2044 0.2750 0.2694 0.1800 0.4247 0.5306 0.1351 0.2073 0.1854 0.4969 0.1041 0.3240 0.1137 0.1015 0.2135 0.1342 0.1000 0.1966 0.1957 0.2013 0.3371 0.2039 0.2226 0.2118 0.1712 0.1127 0.2342 0.1642 0.1910 0.2257 0.1828 0.1863
0.2119 0.5221 0.5063 0.1958 0.5155 0.1783 0.1100 0.1944 0.1268 0.1575 0.0954 0.0902 0.1230 0.1620 0.1411 0.1467 0.6289 0.1859 0.1645 0.1665 0.2179 0.1577 0.1258 0.2099 0.4535 0.1658 0.1366 0.1661 0.2530 0.2621 0.1689 0.4252 0.4656 0.1406 0.1976 0.1804 0.3370 0.1077 0.3069 0.1104 0.1006 0.1677 0.1305 0.0980 0.1952 0.1809 0.1806 0.3163 0.1826 0.2497 0.1817 0.1725 0.1115 0.2075 0.1552 0.1862 0.1667 0.1772 0.1903
0.1893 0.5190 0.4329 0.1917 0.3581 0.1675 0.1083 0.2019 0.1269 0.1449 0.0939 0.0866 0.1172 0.1532 0.1366 0.1444 0.4951 0.1786 0.1664 0.1664 0.2107 0.1421 0.1263 0.2433 0.4399 0.1757 0.1397 0.1848 0.2223 0.2176 0.1674 0.4194 0.3727 0.1239 0.1658 0.1666 0.2749 0.1026 0.3237 0.1027 0.1010 0.1652 0.1306 0.0968 0.1826 0.1793 0.1723 0.2540 0.1802 0.2615 0.1811 0.1735 0.1244 0.2511 0.1569 0.1884 0.2077 0.1753 0.1907
0.1678 0.4918 0.4073 0.1895 0.2982 0.1658 0.1115 0.1874 0.1423 0.1429 0.0900 0.0836 0.1173 0.1619 0.1329 0.1474 0.5099 0.1829 0.1502 0.1576 0.2022 0.1311 0.1176 0.2101 0.4208 0.1635 0.1367 0.1923 0.2138 0.1668 0.1648 0.4009 0.3441 0.1222 0.1544 0.1554 0.2864 0.1016 0.2984 0.1020 0.1031 0.1706 0.1265 0.0913 0.1767 0.1887 0.1651 0.2682 0.1887 0.2238 0.1769 0.1610 0.1098 0.2336 0.1503 0.1836 0.2163 0.1683 0.1829
0.1504 0.4607 0.3672 0.1707 0.2218 0.1659 0.1068 0.1594 0.1255 0.1366 0.0872 0.0762 0.0997 0.1412 0.1270 0.1407 0.6065 0.1645 0.1449 0.1499 0.1953 0.1445 0.1157 0.1983 0.4075 0.1562 0.1290 0.1665 0.1812 0.1482 0.1578 0.3670 0.2916 0.1231 0.1439 0.1573 0.2161 0.0922 0.2852 0.1022 0.0923 0.1465 0.1214 0.0892 0.1808 0.1736 0.1631 0.3012 0.1762 0.2177 0.1710 0.1620 0.1081 0.1992 0.1455 0.1676 0.1646 0.1609 0.1654
0.1593 0.4798 0.3607 0.1724 0.3213 0.1574 0.0998 0.1498 0.1217 0.1391 0.0859 0.0756 0.1151 0.1402 0.1256 0.1318 0.5304 0.1523 0.1397 0.1524 0.1925 0.1395 0.1188 0.2352 0.4023 0.1588 0.1280 0.1660 0.1928 0.1552 0.1583 0.3752 0.3268 0.1282 0.1461 0.1543 0.2531 0.0888 0.2908 0.0958 0.0927 0.1611 0.1145 0.0899 0.1753 0.1633 0.1780 0.2667 0.1590 0.2328 0.1658 0.1700 0.1237 0.2214 0.1435 0.1751 0.1707 0.1569 0.1708
0.1591 0.4390 0.3540 0.1604 0.4787 0.1583 0.0997 0.1446 0.1361 0.1499 0.0855 0.0759 0.1331 0.1420 0.1222 0.1334 0.6720 0.1505 0.1510 0.1439 0.1887 0.1582 0.1082 0.1848 0.4016 0.1563 0.1245 0.1547 0.1949 0.1467 0.1484 0.3679 0.3474 0.1177 0.1562 0.1544 0.3742 0.0840 0.2828 0.1057 0.0946 0.1718 0.1154 0.0846 0.1787 0.1600 0.1789 0.3277 0.1623 0.2277 0.1700 0.1521 0.1173 0.1977 0.1385 0.1696 0.1684 0.1561 0.1603
0.1672 0.4397 0.3338 0.1708 0.6250 0.1553 0.0993 0.1380 0.1541 0.1523 0.0836 0.0763 0.1762 0.1515 0.1157 0.1335 0.6009 0.1736 0.1492 0.1360 0.1764 0.1462 0.1042 0.1631 0.3593 0.1376 0.1181 0.1631 0.2038 0.1447 0.1540 0.3609 0.3752 0.1142 0.1508 0.1576 0.4951 0.0823 0.2718 0.1061 0.1013 0.2272 0.1135 0.0832 0.1716 0.1750 0.1522 0.3050 0.1610 0.2120 0.1525 0.1342 0.1024 0.1696 0.1346 0.1558 0.1625 0.1500 0.1552
0.1646 0.4371 0.3131 0.1583 0.5444 0.1469 0.1049 0.1541 0.1555 0.1603 0.0820 0.0733 0.1696 0.1544 0.1181 0.1311 0.6250 0.1537 0.1554 0.1373 0.1799 0.1560 0.1104 0.1984 0.3662 0.1324 0.1229 0.1776 0.1952 0.1443 0.1538 0.3460 0.3334 0.1039 0.1485 0.1452 0.4602 0.0805 0.2598 0.1227 0.0957 0.2224 0.1102 0.0824 0.1633 0.1587 0.1738 0.3020 0.1702 0.2494 0.1549 0.1488 0.1254 0.1711 0.1342 0.1554 0.1738 0.1414 0.1580
0.1441 0.4230 0.3210 0.1598 0.4167 0.1464 0.0992 0.1778 0.1352 0.1476 0.0773 0.0717 0.1376 0.1334 0.1094 0.1190 0.6761 0.1418 0.1502 0.1365 0.1767 0.1455 0.1096 0.1745 0.3801 0.1247 0.1152 0.1500 0.1807 0.1331 0.1398 0.3510 0.2977 0.0972 0.1469 0.1362 0.3656 0.0818 0.2549 0.1104 0.0941 0.1851 0.1094 0.0813 0.1610 0.1452 0.1920 0.3171 0.1668 0.2260 0.1614 0.1395 0.1247 0.1544 0.1293 0.1453 0.1524 0.1403 0.1506
0.1474 0.4071 0.3125 0.1514 0.2939 0.1392 0.0902 0.1844 0.1216 0.1295 0.0730 0.0695 0.1053 0.1246 0.1090 0.1130 0.4973 0.1196 0.1274 0.1301 0.1721 0.1177 0.0987 0.1545 0.3821 0.1235 0.1134 0.1206 0.1687 0.1433 0.1357 0.3356 0.2751 0.0964 0.1299 0.1373 0.2987 0.0825 0.2524 0.0844 0.0850 0.1367 0.1036 0.0786 0.1523 0.1343 0.1498 0.2416 0.1443 0.1924 0.1572 0.1235 0.0929 0.1559 0.1230 0.1355 0.1290 0.1358 0.1461
0.1666 0.3804 0.3476 0.1432 0.3219 0.1383 0.0831 0.1817 0.1062 0.1176 0.0711 0.0686 0.0988 0.1267 0.1121 0.1111 0.6651 0.1281 0.1238 0.1291 0.1642 0.1222 0.0996 0.1520 0.3542 0.1149 0.1126 0.1206 0.1769 0.1980 0.1345 0.3104 0.3184 0.0997 0.1287 0.1322 0.2839 0.0819 0.2459 0.0849 0.0751 0.1275 0.1032 0.0764 0.1619 0.1378 0.1655 0.3116 0.1543 0.1836 0.1524 0.1268 0.0985 0.1412 0.1190 0.1307 0.1207 0.1310 0.1359
0.1746 0.3912 0.3517 0.1409 0.3016 0.1339 0.0826 0.1619 0.1100 0.1183 0.0694 0.0661 0.1092 0.1173 0.1021 0.1102 0.5900 0.1194 0.1246 0.1246 0.1619 0.1207 0.0964 0.1401 0.3610 0.1212 0.1002 0.1290 0.2012 0.2038 0.1365 0.3145 0.3394 0.1074 0.1249 0.1271 0.2660 0.0772 0.2294 0.0827 0.0770 0.1315 0.0944 0.0721 0.1538 0.1312 0.1726 0.2820 0.1417 0.1798 0.1482 0.1262 0.0861 0.1409 0.1191 0.1401 0.1170 0.1284 0.1370
0.1407 0.3703 0.3228 0.1326 0.2033 0.1254 0.0770 0.1438 0.1046 0.1081 0.0679 0.0597 0.0913 0.1137 0.1034 0.1034 0.3128 0.1170 0.1098 0.1172 0.1552 0.1088 0.0884 0.1444 0.3264 0.1083 0.1050 0.1167 0.1826 0.1726 0.1182 0.3000 0.2725 0.0982 0.1129 0.1201 0.2155 0.0712 0.2232 0.0708 0.0684 0.1149 0.0918 0.0693 0.1263 0.1301 0.1073 0.1702 0.1348 0.1687 0.1306 0.1190 0.0840 0.1391 0.1102 0.1244 0.1174 0.1260 0.1306
0.1368 0.3707 0.2722 0.1333 0.2037 0.1193 0.0789 0.1445 0.0973 0.1063 0.0650 0.0593 0.0805 0.1109 0.0978 0.1002 0.4714 0.1106 0.0994 0.1126 0.1452 0.1068 0.0853 0.1503 0.3418 0.1097 0.1068 0.1123 0.1595 0.1478 0.1235 0.2979 0.2213 0.0891 0.1058 0.1178 0.2069 0.0673 0.2350 0.0742 0.0706 0.1145 0.0908 0.0671 0.1391 0.1227 0.1443 0.2245 0.1344 0.1555 0.1384 0.1220 0.0882 0.1407 0.1102 0.1224 0.1140 0.1244 0.1332
0.1380 0.3459 0.2865 0.1256 0.2447 0.1183 0.0751 0.1482 0.0963 0.1028 0.0632 0.0578 0.0826 0.1100 0.0988 0.1023 0.4527 0.1059 0.0991 0.1130 0.1444 0.1009 0.0857 0.1519 0.3286 0.1056 0.0955 0.1250 0.1431 0.1522 0.1393 0.2844 0.2365 0.0848 0.1055 0.1160 0.2154 0.0665 0.2126 0.0693 0.0683 0.1151 0.0869 0.0639 0.1317 0.1196 0.1362 0.2275 0.1228 0.1686 0.1397 0.1128 0.0736 0.1301 0.1051 0.1229 0.1044 0.1185 0.1247
0.1216 0.3329 0.2695 0.1243 0.2488 0.1108 0.0717 0.1281 0.0905 0.0963 0.0600 0.0562 0.0835 0.1046 0.0998 0.0980 0.3882 0.0939 0.0928 0.1065 0.1371 0.0907 0.0842 0.1364 0.3169 0.0987 0.0974 0.1129 0.1362 0.1305 0.1295 0.2665 0.2320 0.0868 0.1000 0.1119 0.2020 0.0648 0.2007 0.0665 0.0678 0.1129 0.0829 0.0621 0.1244 0.1152 0.1156 0.1955 0.1229 0.1523 0.1278 0.1069 0.0697 0.1239 0.1009 0.1162 0.0990 0.1118 0.1224
0.1266 0.3300 0.2497 0.1219 0.2401 0.1070 0.0683 0.1162 0.0920 0.0996 0.0582 0.0522 0.0866 0.1018 0.0907 0.0941 0.4718 0.0954 0.0886 0.1104 0.1319 0.0933 0.0790 0.1161 0.2893 0.0966 0.0995 0.1100 0.1451 0.1319 0.1257 0.2672 0.2382 0.0810 0.0980 0.1035 0.2126 0.0604 0.1964 0.0665 0.0659 0.1165 0.0793 0.0600 0.1290 0.1122 0.1267 0.2291 0.1234 0.1366 0.1195 0.0983 0.0768 0.1163 0.0953 0.1104 0.0992 0.1050 0.1163
0.1241 0.3117 0.2528 0.1204 0.2142 0.1045 0.0702 0.0973 0.0919 0.0950 0.0564 0.0529 0.0797 0.1024 0.0832 0.0867 0.3540 0.0977 0.0925 0.0979 0.1208 0.0850 0.0810 0.1292 0.2876 0.0922 0.0842 0.1006 0.1460 0.1173 0.1145 0.2539 0.2197 0.0736 0.0943 0.1063 0.2193 0.0585 0.1896 0.0651 0.0624 0.1134 0.0800 0.0566 0.1163 0.1071 0.1050 0.1785 0.1128 0.1423 0.1149 0.0998 0.0685 0.1118 0.0939 0.1103 0.0969 0.1033 0.1098
0.1061 0.2977 0.2357 0.1132 0.1643 0.1020 0.0637 0.0979 0.0816 0.0936 0.0544 0.0505 0.0689 0.0958 0.0871 0.0829 0.4359 0.0855 0.0834 0.0982 0.1220 0.0864 0.0761 0.1178 0.2909 0.0893 0.0858 0.0932 0.1215 0.1120 0.1064 0.2452 0.1901 0.0814 0.0897 0.1031 0.1658 0.0561 0.1800 0.0662 0.0578 0.0972 0.0782 0.0569 0.1113 0.1004 0.1254 0.2061 0.1128 0.1258 0.1150 0.0968 0.0609 0.1063 0.0899 0.1031 0.0897 0.0986 0.1090
0.1077 0.2935 0.2292 0.1032 0.1663 0.0967 0.0659 0.0936 0.0842 0.0903 0.0520 0.0494 0.0755 0.0901 0.0816 0.0797 0.3529 0.0863 0.0820 0.0891 0.1139 0.0794 0.0736 0.1094 0.2594 0.0859 0.0856 0.0897 0.1186 0.1032 0.1017 0.2365 0.1888 0.0921 0.0914 0.0969 0.1780 0.0533 0.1703 0.0596 0.0590 0.0999 0.0769 0.0555 0.1132 0.0993 0.1093 0.1800 0.1035 0.1140 0.1087 0.0883 0.0606 0.1036 0.0874 0.0993 0.0899 0.0939 0.1059
0.1186 0.2763 0.2207 0.1053 0.2194 0.0969 0.0677 0.0843 0.0973 0.0952 0.0513 0.0482 0.0970 0.0923 0.0785 0.0761 0.2973 0.0857 0.0821 0.0888 0.1126 0.0733 0.0717 0.1220 0.2491 0.0846 0.0781 0.0935 0.1393 0.1103 0.1061 0.2329 0.2151 0.0853 0.0856 0.0937 0.2389 0.0543 0.1772 0.0623 0.0600 0.1149 0.0711 0.0510 0.1026 0.0946 0.0942 0.1546 0.0965 0.1212 0.1017 0.0874 0.0580 0.1027 0.0825 0.0993 0.0847 0.0943 0.0997
0.1161 0.2781 0.2087 0.1008 0.2382 0.0914 0.0650 0.0872 0.1071 0.0947 0.0505 0.0506 0.1044 0.0921 0.0803 0.0756 0.2837 0.0855 0.0873 0.0884 0.1120 0.0803 0.0711 0.1230 0.2488 0.0867 0.0773 0.0940 0.1317 0.1067 0.1049 0.2230 0.2063 0.0828 0.0887 0.0892 0.2735 0.0533 0.1701 0.0685 0.0595 0.1148 0.0688 0.0509 0.0993 0.0939 0.0950 0.1496 0.0904 0.1249 0.0976 0.0884 0.0669 0.1141 0.0793 0.0969 0.0903 0.0911 0.0981
0.0925 0.2649 0.1921 0.0997 0.2051 0.0908 0.0606 0.0885 0.0873 0.0910 0.0497 0.0451 0.0836 0.0891 0.0769 0.0737 0.3146 0.0836 0.0861 0.0877 0.1116 0.0760 0.0655 0.1349 0.2629 0.0839 0.0818 0.0904 0.1155 0.0852 0.0940 0.2180 0.1737 0.0698 0.0810 0.0931 0.2205 0.0504 0.1650 0.0609 0.0563 0.1007 0.0653 0.0497 0.0961 0.0936 0.1041 0.1549 0.0960 0.1332 0.1062 0.0864 0.0597 0.1206 0.0757 0.0941 0.0893 0.0900 0.0957
0.0885 0.2606 0.1943 0.0972 0.1729 0.0833 0.0545 0.0962 0.0705 0.0772 0.0464 0.0422 0.0659 0.0800 0.0721 0.0743 0.3542 0.0882 0.0853 0.0825 0.1053 0.0744 0.0650 0.1551 0.2523 0.0825 0.0732 0.0901 0.1091 0.0820 0.0934 0.2116 0.1644 0.0619 0.0761 0.0817 0.1592 0.0517 0.1550 0.0539 0.0522 0.0879 0.0651 0.0483 0.0993 0.0918 0.1088 0.1737 0.0891 0.1548 0.0987 0.0892 0.0508 0.1204 0.0749 0.0929 0.0830 0.0839 0.0957
0.0882 0.2383 0.1784 0.0923 0.1526 0.0780 0.0505 0.0985 0.0619 0.0719 0.0447 0.0420 0.0533 0.0756 0.0714 0.0719 0.4073 0.0868 0.0799 0.0807 0.0986 0.0722 0.0633 0.1236 0.2356 0.0744 0.0708 0.0806 0.1008 0.0830 0.0933 0.1954 0.1523 0.0667 0.0701 0.0798 0.1247 0.0473 0.1441 0.0563 0.0497 0.0789 0.0632 0.0462 0.0987 0.0874 0.1090 0.1964 0.0939 0.1278 0.0967 0.0778 0.0546 0.1051 0.0696 0.0863 0.0811 0.0806 0.0888
0.0897 0.2403 0.1912 0.0896 0.1847 0.0755 0.0496 0.0987 0.0687 0.0694 0.0422 0.0399 0.0591 0.0740 0.0683 0.0648 0.2984 0.0797 0.0767 0.0750 0.0946 0.0691 0.0579 0.1034 0.2166 0.0712 0.0635 0.0806 0.1087 0.0919 0.0888 0.1863 0.1756 0.0697 0.0752 0.0754 0.1480 0.0456 0.1472 0.0492 0.0495 0.0781 0.0592 0.0442 0.0875 0.0798 0.0883 0.1448 0.0825 0.1144 0.0878 0.0744 0.0509 0.0912 0.0703 0.0828 0.0756 0.0774 0.0871
0.0955 0.2263 0.1943 0.0885 0.2261 0.0790 0.0503 0.1001 0.0707 0.0721 0.0412 0.0378 0.0653 0.0757 0.0673 0.0637 0.2991 0.0859 0.0838 0.0683 0.0910 0.0678 0.0550 0.1149 0.2214 0.0728 0.0606 0.0861 0.1113 0.0901 0.0908 0.1850 0.1912 0.0639 0.0799 0.0742 0.1818 0.0449 0.1350 0.0485 0.0487 0.0884 0.0587 0.0408 0.0846 0.0796 0.0891 0.1476 0.0823 0.1323 0.0924 0.0754 0.0524 0.0972 0.0656 0.0833 0.0797 0.0750 0.0799
0.0828 0.2239 0.1762 0.0794 0.1650 0.0738 0.0474 0.0870 0.0688 0.0659 0.0378 0.0374 0.0658 0.0697 0.0609 0.0569 0.2710 0.0775 0.0738 0.0656 0.0880 0.0589 0.0523 0.0931 0.1979 0.0658 0.0581 0.0770 0.0934 0.0811 0.0789 0.1783 0.1529 0.0601 0.0695 0.0719 0.1493 0.0420 0.1331 0.0468 0.0472 0.0802 0.0562 0.0395 0.0814 0.0752 0.0816 0.1340 0.0750 0.0995 0.0862 0.0690 0.0486 0.0845 0.0630 0.0746 0.0755 0.0742 0.0774
0.0812 0.2102 0.1678 0.0777 0.1423 0.0700 0.0440 0.0766 0.0719 0.0621 0.0388 0.0342 0.0623 0.0677 0.0589 0.0573 0.2651 0.0717 0.0729 0.0659 0.0844 0.0640 0.0526 0.1091 0.1942 0.0689 0.0601 0.0709 0.0924 0.0821 0.0744 0.1688 0.1469 0.0618 0.0647 0.0684 0.1461 0.0400 0.1197 0.0483 0.0452 0.0749 0.0516 0.0387 0.0783 0.0710 0.0729 0.1310 0.0760 0.1055 0.0806 0.0712 0.0549 0.0936 0.0626 0.0744 0.0705 0.0663 0.0749
0.0960 0.2034 0.1798 0.0785 0.1820 0.0684 0.0466 0.0746 0.0790 0.0577 0.0351 0.0344 0.0741 0.0682 0.0580 0.0534 0.2442 0.0713 0.0772 0.0649 0.0834 0.0661 0.0506 0.1108 0.2011 0.0720 0.0597 0.0777 0.1043 0.0976 0.0824 0.1670 0.1709 0.0638 0.0662 0.0668 0.1898 0.0383 0.1204 0.0441 0.0450 0.0837 0.0511 0.0366 0.0725 0.0694 0.0763 0.1250 0.0696 0.1170 0.0822 0.0719 0.0537 0.1016 0.0594 0.0832 0.0728 0.0644 0.0706
0.0951 0.2003 0.1830 0.0724 0.1695 0.0652 0.0427 0.0674 0.0746 0.0611 0.0335 0.0336 0.0760 0.0665 0.0530 0.0549 0.2915 0.0733 0.0659 0.0616 0.0795 0.0631 0.0507 0.1056 0.1882 0.0647 0.0579 0.0777 0.0974 0.1118 0.0802 0.1620 0.1636 0.0487 0.0594 0.0655 0.1851 0.0362 0.1172 0.0458 0.0435 0.0858 0.0517 0.0370 0.0750 0.0713 0.0873 0.1402 0.0678 0.1170 0.0789 0.0699 0.0472 0.0956 0.0595 0.0766 0.0743 0.0637 0.0742
0.0973 0.1931 0.1568 0.0716 0.1703 0.0627 0.0448 0.0734 0.0704 0.0630 0.0332 0.0316 0.0713 0.0687 0.0515 0.0517 0.2649 0.0836 0.0648 0.0576 0.0730 0.0633 0.0580 0.0856 0.1840 0.0587 0.0560 0.0784 0.0941 0.0994 0.0810 0.1543 0.1556 0.0472 0.0579 0.0616 0.1930 0.0342 0.1124 0.0448 0.0399 0.0878 0.0484 0.0336 0.0666 0.0697 0.0754 0.1273 0.0720 0.1012 0.0761 0.0631 0.0494 0.0806 0.0553 0.0706 0.0764 0.0595 0.0689
0.0806 0.1752 0.1622 0.0683 0.2001 0.0619 0.0402 0.0708 0.0618 0.0532 0.0319 0.0302 0.0558 0.0656 0.0557 0.0485 0.2480 0.0675 0.0606 0.0564 0.0725 0.0581 0.0495 0.0772 0.1751 0.0602 0.0536 0.0675 0.0863 0.0906 0.0682 0.1422 0.1652 0.0430 0.0603 0.0618 0.1855 0.0332 0.1080 0.0394 0.0356 0.0709 0.0464 0.0321 0.0662 0.0616 0.0700 0.1237 0.0626 0.0895 0.0710 0.0611 0.0456 0.0751 0.0526 0.0666 0.0717 0.0583 0.0648
0.0664 0.1661 0.1347 0.0643 0.1533 0.0557 0.0375 0.0668 0.0517 0.0517 0.0296 0.0279 0.0472 0.0574 0.0453 0.0461 0.2301 0.0593 0.0611 0.0543 0.0687 0.0531 0.0460 0.0842 0.1669 0.0626 0.0482 0.0573 0.0696 0.0679 0.0622 0.1405 0.1227 0.0424 0.0547 0.0554 0.1452 0.0320 0.1033 0.0355 0.0345 0.0649 0.0437 0.0303 0.0625 0.0577 0.0703 0.1152 0.0590 0.0962 0.0702 0.0599 0.0416 0.0744 0.0486 0.0653 0.0601 0.0570 0.0608
0.0708 0.1656 0.1294 0.0595 0.1460 0.0532 0.0362 0.0691 0.0483 0.0519 0.0284 0.0274 0.0412 0.0556 0.0492 0.0443 0.2391 0.0586 0.0552 0.0510 0.0663 0.0508 0.0459 0.0807 0.1577 0.0563 0.0443 0.0671 0.0674 0.0662 0.0725 0.1326 0.1141 0.0409 0.0521 0.0536 0.1401 0.0307 0.0959 0.0325 0.0316 0.0575 0.0419 0.0290 0.0620 0.0559 0.0623 0.1230 0.0574 0.0919 0.0641 0.0565 0.0370 0.0707 0.0474 0.0657 0.0544 0.0507 0.0583
0.0628 0.1566 0.1223 0.0581 0.1324 0.0512 0.0342 0.0615 0.0465 0.0479 0.0278 0.0263 0.0407 0.0556 0.0468 0.0434 0.2014 0.0554 0.0519 0.0480 0.0630 0.0459 0.0420 0.0716 0.1514 0.0551 0.0436 0.0661 0.0638 0.0624 0.0663 0.1247 0.1138 0.0401 0.0478 0.0508 0.1199 0.0296 0.0915 0.0329 0.0315 0.0575 0.0419 0.0284 0.0586 0.0531 0.0606 0.0986 0.0552 0.0870 0.0650 0.0529 0.0356 0.0687 0.0438 0.0658 0.0552 0.0499 0.0577
0.0545 0.1458 0.1162 0.0529 0.1155 0.0495 0.0309 0.0587 0.0390 0.0429 0.0253 0.0253 0.0344 0.0494 0.0435 0.0403 0.2096 0.0557 0.0505 0.0453 0.0591 0.0465 0.0370 0.0772 0.1463 0.0511 0.0400 0.0683 0.0548 0.0578 0.0621 0.1212 0.0973 0.0367 0.0455 0.0486 0.0875 0.0282 0.0861 0.0322 0.0287 0.0489 0.0383 0.0265 0.0570 0.0500 0.0580 0.1019 0.0505 0.0909 0.0649 0.0540 0.0339 0.0630 0.0413 0.0616 0.0526 0.0476 0.0555
0.0505 0.1395 0.1173 0.0534 0.1253 0.0469 0.0304 0.0500 0.0366 0.0449 0.0241 0.0235 0.0384 0.0441 0.0395 0.0385 0.2773 0.0475 0.0470 0.0450 0.0558 0.0480 0.0361 0.0654 0.1341 0.0458 0.0382 0.0486 0.0562 0.0544 0.0521 0.1134 0.0998 0.0343 0.0461 0.0459 0.0902 0.0267 0.0893 0.0316 0.0282 0.0511 0.0367 0.0264 0.0632 0.0483 0.0689 0.1318 0.0496 0.0757 0.0586 0.0464 0.0350 0.0530 0.0412 0.0515 0.0427 0.0469 0.0516
0.0529 0.1314 0.1180 0.0504 0.1023 0.0449 0.0290 0.0443 0.0353 0.0451 0.0239 0.0227 0.0370 0.0420 0.0371 0.0390 0.3508 0.0506 0.0468 0.0435 0.0542 0.0457 0.0342 0.0565 0.1348 0.0439 0.0385 0.0431 0.0551 0.0656 0.0491 0.1081 0.1001 0.0352 0.0406 0.0430 0.0767 0.0252 0.0908 0.0350 0.0272 0.0486 0.0350 0.0244 0.0623 0.0475 0.0743 0.1603 0.0560 0.0683 0.0552 0.0442 0.0369 0.0529 0.0378 0.0511 0.0426 0.0452 0.0502
0.0498 0.1227 0.0950 0.0466 0.0908 0.0435 0.0264 0.0409 0.0341 0.0376 0.0226 0.0215 0.0349 0.0413 0.0362 0.0327 0.1251 0.0408 0.0411 0.0407 0.0517 0.0362 0.0348 0.0529 0.1339 0.0415 0.0369 0.0442 0.0502 0.0486 0.0529 0.1020 0.0849 0.0305 0.0382 0.0411 0.0728 0.0243 0.0774 0.0238 0.0254 0.0452 0.0337 0.0227 0.0414 0.0415 0.0411 0.0631 0.0459 0.0637 0.0513 0.0416 0.0313 0.0505 0.0365 0.0497 0.0367 0.0399 0.0464
0.0406 0.1222 0.0905 0.0453 0.0629 0.0392 0.0250 0.0373 0.0294 0.0343 0.0217 0.0202 0.0291 0.0370 0.0360 0.0333 0.1712 0.0397 0.0409 0.0403 0.0473 0.0394 0.0304 0.0507 0.1217 0.0381 0.0346 0.0398 0.0472 0.0400 0.0424 0.1005 0.0726 0.0297 0.0348 0.0386 0.0574 0.0223 0.0728 0.0262 0.0248 0.0412 0.0316 0.0225 0.0457 0.0406 0.0471 0.0849 0.0412 0.0621 0.0475 0.0378 0.0280 0.0454 0.0356 0.0435 0.0355 0.0387 0.0454
0.0362 0.1186 0.0886 0.0440 0.0548 0.0373 0.0231 0.0403 0.0272 0.0329 0.0202 0.0190 0.0261 0.0338 0.0302 0.0303 0.1229 0.0344 0.0369 0.0361 0.0463 0.0339 0.0294 0.0541 0.1167 0.0405 0.0333 0.0404 0.0414 0.0404 0.0397 0.0986 0.0666 0.0291 0.0314 0.0370 0.0509 0.0214 0.0685 0.0232 0.0234 0.0370 0.0301 0.0220 0.0395 0.0372 0.0394 0.0618 0.0399 0.0628 0.0485 0.0390 0.0268 0.0465 0.0331 0.0465 0.0348 0.0395 0.0426
0.0393 0.1105 0.0826 0.0409 0.0699 0.0355 0.0224 0.0411 0.0272 0.0330 0.0186 0.0182 0.0275 0.0327 0.0301 0.0288 0.1531 0.0335 0.0365 0.0344 0.0438 0.0324 0.0298 0.0417 0.1097 0.0363 0.0319 0.0356 0.0422 0.0435 0.0394 0.0869 0.0719 0.0286 0.0313 0.0363 0.0585 0.0205 0.0671 0.0218 0.0228 0.0384 0.0272 0.0192 0.0432 0.0362 0.0450 0.0746 0.0395 0.0486 0.0437 0.0349 0.0273 0.0407 0.0315 0.0418 0.0339 0.0364 0.0402
0.0454 0.1047 0.0779 0.0393 0.0814 0.0341 0.0228 0.0399 0.0293 0.0314 0.0177 0.0175 0.0282 0.0339 0.0278 0.0260 0.1337 0.0365 0.0307 0.0318 0.0410 0.0300 0.0255 0.0477 0.1029 0.0338 0.0311 0.0355 0.0492 0.0432 0.0393 0.0859 0.0758 0.0260 0.0308 0.0329 0.0739 0.0193 0.0603 0.0237 0.0206 0.0389 0.0259 0.0180 0.0391 0.0359 0.0382 0.0677 0.0357 0.0463 0.0426 0.0342 0.0230 0.0419 0.0293 0.0382 0.0332 0.0330 0.0374
0.0346 0.0948 0.0740 0.0376 0.0750 0.0314 0.0204 0.0376 0.0292 0.0300 0.0170 0.0159 0.0280 0.0315 0.0284 0.0253 0.1436 0.0298 0.0275 0.0306 0.0371 0.0290 0.0245 0.0480 0.0930 0.0309 0.0281 0.0314 0.0437 0.0363 0.0328 0.0764 0.0680 0.0248 0.0285 0.0301 0.0737 0.0174 0.0566 0.0210 0.0197 0.0370 0.0245 0.0175 0.0373 0.0314 0.0389 0.0710 0.0337 0.0462 0.0386 0.0323 0.0212 0.0403 0.0283 0.0347 0.0323 0.0308 0.0348
0.0315 0.0871 0.0631 0.0345 0.0878 0.0289 0.0193 0.0301 0.0257 0.0297 0.0153 0.0146 0.0279 0.0280 0.0225 0.0232 0.1335 0.0275 0.0259 0.0282 0.0348 0.0268 0.0225 0.0397 0.0943 0.0272 0.0256 0.0260 0.0402 0.0308 0.0285 0.0709 0.0664 0.0242 0.0284 0.0287 0.0720 0.0166 0.0515 0.0211 0.0181 0.0371 0.0221 0.0160 0.0328 0.0293 0.0363 0.0656 0.0299 0.0407 0.0376 0.0275 0.0190 0.0365 0.0248 0.0302 0.0281 0.0285 0.0329
0.0304 0.0760 0.0599 0.0292 0.0708 0.0253 0.0168 0.0263 0.0207 0.0236 0.0135 0.0130 0.0198 0.0246 0.0197 0.0204 0.1113 0.0262 0.0229 0.0234 0.0308 0.0220 0.0195 0.0387 0.0830 0.0238 0.0223 0.0256 0.0345 0.0272 0.0291 0.0635 0.0552 0.0200 0.0246 0.0245 0.0596 0.0141 0.0464 0.0175 0.0146 0.0276 0.0203 0.0136 0.0282 0.0258 0.0292 0.0527 0.0281 0.0365 0.0338 0.0240 0.0180 0.0328 0.0218 0.0276 0.0243 0.0246 0.0284
0.0225 0.0614 0.0457 0.0233 0.0347 0.0201 0.0126 0.0198 0.0152 0.0180 0.0110 0.0099 0.0146 0.0193 0.0175 0.0160 0.1042 0.0193 0.0192 0.0189 0.0243 0.0199 0.0151 0.0290 0.0678 0.0194 0.0173 0.0187 0.0246 0.0221 0.0219 0.0517 0.0382 0.0150 0.0169 0.0198 0.0307 0.0113 0.0362 0.0138 0.0125 0.0209 0.0161 0.0110 0.0254 0.0202 0.0258 0.0508 0.0212 0.0312 0.0264 0.0199 0.0148 0.0240 0.0174 0.0221 0.0174 0.0192 0.0229
0.0152 0.0435 0.0369 0.0167 0.0326 0.0152 0.0092 0.0134 0.0117 0.0138 0.0077 0.0072 0.0111 0.0137 0.0125 0.0122 0.1003 0.0136 0.0152 0.0147 0.0178 0.0161 0.0101 0.0166 0.0529 0.0141 0.0129 0.0135 0.0180 0.0165 0.0146 0.0352 0.0322 0.0126 0.0130 0.0142 0.0273 0.0080 0.0267 0.0117 0.0089 0.0152 0.0117 0.0084 0.0192 0.0145 0.0216 0.0465 0.0175 0.0215 0.0208 0.0131 0.0107 0.0174 0.0127 0.0176 0.0133 0.0142 0.0164
0.0097 0.0263 0.0202 0.0101 0.0212 0.0089 0.0055 0.0080 0.0070 0.0081 0.0046 0.0044 0.0064 0.0086 0.0076 0.0071 0.0559 0.0092 0.0089 0.0086 0.0105 0.0093 0.0062 0.0130 0.0337 0.0077 0.0074 0.0089 0.0116 0.0087 0.0093 0.0227 0.0190 0.0078 0.0079 0.0088 0.0183 0.0047 0.0156 0.0065 0.0052 0.0094 0.0068 0.0048 0.0110 0.0092 0.0124 0.0264 0.0093 0.0143 0.0126 0.0081 0.0061 0.0107 0.0074 0.0099 0.0083 0.0084 0.0099
0.0043 0.0118 0.0080 0.0042 0.0079 0.0040 0.0024 0.0038 0.0031 0.0036 0.0020 0.0020 0.0027 0.0037 0.0034 0.0031 0.0275 0.0045 0.0039 0.0038 0.0048 0.0041 0.0027 0.0059 0.0166 0.0037 0.0032 0.0038 0.0051 0.0037 0.0043 0.0096 0.0077 0.0030 0.0033 0.0038 0.0077 0.0020 0.0067 0.0032 0.0023 0.0041 0.0031 0.0021 0.0051 0.0043 0.0055 0.0129 0.0043 0.0065 0.0060 0.0039 0.0026 0.0050 0.0032 0.0045 0.0038 0.0035 0.0043
0.0012 0.0034 0.0025 0.0013 0.0026 0.0013 0.0008 0.0012 0.0010 0.0012 0.0006 0.0006 0.0009 0.0011 0.0011 0.0010 0.0105 0.0013 0.0013 0.0012 0.0015 0.0015 0.0008 0.0015 0.0060 0.0011 0.0010 0.0012 0.0014 0.0011 0.0013 0.0029 0.0023 0.0009 0.0010 0.0012 0.0025 0.0007 0.0022 0.0010 0.0007 0.0013 0.0009 0.0007 0.0019 0.0012 0.0020 0.0048 0.0013 0.0021 0.0020 0.0011 0.0008 0.0015 0.0010 0.0014 0.0011 0.0011 0.0013
0.0003 0.0008 0.0006 0.0003 0.0005 0.0003 0.0002 0.0003 0.0002 0.0003 0.0001 0.0001 0.0002 0.0003 0.0003 0.0002 0.0023 0.0003 0.0003 0.0003 0.0003 0.0003 0.0002 0.0004 0.0013 0.0002 0.0002 0.0003 0.0003 0.0002 0.0003 0.0006 0.0005 0.0002 0.0002 0.0003 0.0005 0.0001 0.0005 0.0002 0.0002 0.0003 0.0002 0.0001 0.0004 0.0003 0.0005 0.0010 0.0003 0.0004 0.0005 0.0003 0.0002 0.0004 0.0002 0.0003 0.0003 0.0003 0.0003
0.0001 0.0002 0.0001 0.0001 0.0001 0.0001 0.0000 0.0001 0.0001 0.0001 0.0000 0.0000 0.0000 0.0001 0.0001 0.0001 0.0004 0.0001 0.0001 0.0001 0.0001 0.0001 0.0000 0.0001 0.0003 0.0001 0.0001 0.0001 0.0001 0.0001 0.0001 0.0001 0.0001 0.0000 0.0001 0.0001 0.0001 0.0000 0.0001 0.0000 0.0000 0.0001 0.0000 0.0000 0.0001 0.0001 0.0001 0.0002 0.0001 0.0001 0.0001 0.0001 0.0000 0.0001 0.0001 0.0001 0.0001 0.0001 0.0001
0.0000 0.0001 0.0001 0.0000 0.0000 0.0000 0.0000 0.0000 0.0000 0.0000 0.0000 0.0000 0.0000 0.0000 0.0000 0.0000 0.0003 0.0000 0.0000 0.0000 0.0000 0.0000 0.0000 0.0000 0.0003 0.0000 0.0000 0.0000 0.0000 0.0000 0.0000 0.0001 0.0000 0.0000 0.0000 0.0000 0.0000 0.0000 0.0001 0.0000 0.0000 0.0000 0.0000 0.0000 0.0000 0.0000 0.0001 0.0001 0.0000 0.0001 0.0001 0.0000 0.0000 0.0000 0.0000 0.0000 0.0000 0.0000 0.0000
0.0000 0.0001 0.0000 0.0000 0.0000 0.0000 0.0000 0.0000 0.0000 0.0000 0.0000 0.0000 0.0000 0.0000 0.0000 0.0000 0.0006 0.0000 0.0000 0.0000 0.0000 0.0001 0.0000 0.0000 0.0004 0.0000 0.0000 0.0000 0.0000 0.0000 0.0000 0.0001 0.0000 0.0000 0.0000 0.0000 0.0000 0.0000 0.0001 0.0001 0.0000 0.0000 0.0000 0.0000 0.0001 0.0000 0.0001 0.0002 0.0000 0.0001 0.0001 0.0000 0.0000 0.0000 0.0000 0.0000 0.0000 0.0000 0.0000
0.0000 0.0001 0.0000 0.0000 0.0000 0.0000 0.0000 0.0000 0.0000 0.0000 0.0000 0.0000 0.0000 0.0000 0.0000 0.0000 0.0008 0.0001 0.0000 0.0000 0.0000 0.0001 0.0000 0.0001 0.0005 0.0000 0.0000 0.0000 0.0000 0.0000 0.0000 0.0001 0.0000 0.0000 0.0000 0.0000 0.0000 0.0000 0.0001 0.0001 0.0000 0.0000 0.0000 0.0000 0.0001 0.0000 0.0001 0.0003 0.0000 0.0001 0.0001 0.0000 0.0000 0.0000 0.0000 0.0001 0.0000 0.0000 0.0000
0.0000 0.0001 0.0000 0.0000 0.0000 0.0000 0.0000 0.0000 0.0000 0.0000 0.0000 0.0000 0.0000 0.0000 0.0000 0.0000 0.0009 0.0001 0.0000 0.0000 0.0000 0.0001 0.0000 0.0001 0.0006 0.0000 0.0000 0.0000 0.0000 0.0000 0.0000 0.0001 0.0000 0.0000 0.0000 0.0000 0.0000 0.0000 0.0001 0.0001 0.0000 0.0000 0.0000 0.0000 0.0001 0.0000 0.0001 0.0004 0.0000 0.0001 0.0002 0.0000 0.0000 0.0000 0.0000 0.0001 0.0000 0.0000 0.0000
0.0000 0.0001 0.0000 0.0000 0.0000 0.0001 0.0000 0.0000 0.0000 0.0000 0.0000 0.0000 0.0000 0.0000 0.0000 0.0000 0.0009 0.0001 0.0001 0.0000 0.0000 0.0001 0.0000 0.0001 0.0006 0.0000 0.0000 0.0000 0.0000 0.0000 0.0000 0.0001 0.0000 0.0000 0.0000 0.0000 0.0000 0.0000 0.0001 0.0001 0.0000 0.0000 0.0000 0.0000 0.0001 0.0000 0.0001 0.0004 0.0000 0.0001 0.0002 0.0000 0.0000 0.0001 0.0000 0.0001 0.0000 0.0000 0.0000
0.0000 0.0001 0.0000 0.0000 0.0000 0.0001 0.0000 0.0000 0.0000 0.0000 0.0000 0.0000 0.0000 0.0000 0.0000 0.0000 0.0010 0.0001 0.0001 0.0000 0.0000 0.0001 0.0000 0.0001 0.0007 0.0000 0.0000 0.0000 0.0000 0.0000 0.0000 0.0001 0.0000 0.0000 0.0000 0.0000 0.0000 0.0000 0.0001 0.0001 0.0000 0.0000 0.0000 0.0000 0.0001 0.0000 0.0001 0.0004 0.0000 0.0001 0.0002 0.0000 0.0000 0.0001 0.0000 0.0001 0.0000 0.0000 0.0000
0.0000 0.0001 0.0000 0.0000 0.0000 0.0001 0.0000 0.0000 0.0000 0.0000 0.0000 0.0000 0.0000 0.0000 0.0000 0.0000 0.0010 0.0001 0.0001 0.0000 0.0000 0.0001 0.0000 0.0001 0.0007 0.0000 0.0000 0.0000 0.0000 0.0000 0.0000 0.0001 0.0000 0.0000 0.0000 0.0000 0.0000 0.0000 0.0001 0.0001 0.0000 0.0000 0.0000 0.0000 0.0001 0.0000 0.0001 0.0004 0.0000 0.0001 0.0002 0.0000 0.0000 0.0001 0.0000 0.0001 0.0000 0.0000 0.0000
0.0000 0.0001 0.0000 0.0000 0.0000 0.0001 0.0000 0.0000 0.0000 0.0000 0.0000 0.0000 0.0000 0.0000 0.0000 0.0000 0.0010 0.0001 0.0001 0.0000 0.0000 0.0001 0.0000 0.0001 0.0007 0.0000 0.0000 0.0000 0.0000 0.0000 0.0000 0.0001 0.0000 0.0000 0.0000 0.0000 0.0000 0.0000 0.0001 0.0001 0.0000 0.0000 0.0000 0.0000 0.0001 0.0000 0.0001 0.0004 0.0000 0.0001 0.0002 0.0000 0.0000 0.0001 0.0000 0.0001 0.0000 0.0000 0.0000
0.0000 0.0001 0.0000 0.0000 0.0000 0.0001 0.0000 0.0000 0.0000 0.0000 0.0000 0.0000 0.0000 0.0000 0.0000 0.0000 0.0010 0.0001 0.0001 0.0000 0.0000 0.0001 0.0000 0.0001 0.0007 0.0000 0.0000 0.0000 0.0000 0.0000 0.0000 0.0001 0.0000 0.0000 0.0000 0.0000 0.0000 0.0000 0.0001 0.0001 0.0000 0.0000 0.0000 0.0000 0.0001 0.0000 0.0001 0.0004 0.0000 0.0001 0.0002 0.0000 0.0000 0.0001 0.0000 0.0001 0.0000 0.0000 0.0000
0.0000 0.0001 0.0000 0.0000 0.0000 0.0001 0.0000 0.0000 0.0000 0.0000 0.0000 0.0000 0.0000 0.0000 0.0000 0.0000 0.0009 0.0001 0.0001 0.0000 0.0000 0.0001 0.0000 0.0001 0.0007 0.0000 0.0000 0.0000 0.0000 0.0000 0.0000 0.0001 0.0000 0.0000 0.0000 0.0000 0.0000 0.0000 0.0001 0.0001 0.0000 0.0000 0.0000 0.0000 0.0001 0.0000 0.0001 0.0004 0.0000 0.0001 0.0002 0.0000 0.0000 0.0001 0.0000 0.0001 0.0000 0.0000 0.0000
0.0000 0.0001 0.0000 0.0000 0.0000 0.0000 0.0000 0.0000 0.0000 0.0000 0.0000 0.0000 0.0000 0.0000 0.0000 0.0000 0.0008 0.0001 0.0000 0.0000 0.0000 0.0001 0.0000 0.0001 0.0006 0.0000 0.0000 0.0000 0.0000 0.0000 0.0000 0.0001 0.0000 0.0000 0.0000 0.0000 0.0000 0.0000 0.0001 0.0001 0.0000 0.0000 0.0000 0.0000 0.0001 0.0000 0.0001 0.0004 0.0000 0.0001 0.0002 0.0000 0.0000 0.0001 0.0000 0.0001 0.0000 0.0000 0.0000
0.0000 0.0001 0.0000 0.0000 0.0000 0.0000 0.0000 0.0000 0.0000 0.0000 0.0000 0.0000 0.0000 0.0000 0.0000 0.0000 0.0007 0.0001 0.0000 0.0000 0.0000 0.0001 0.0000 0.0001 0.0005 0.0000 0.0000 0.0000 0.0000 0.0000 0.0000 0.0001 0.0000 0.0000 0.0000 0.0000 0.0000 0.0000 0.0001 0.0001 0.0000 0.0000 0.0000 0.0000 0.0001 0.0000 0.0001 0.0003 0.0000 0.0001 0.0002 0.0000 0.0000 0.0000 0.0000 0.0001 0.0000 0.0000 0.0000
0.0000 0.0001 0.0000 0.0000 0.0000 0.0000 0.0000 0.0000 0.0000 0.0000 0.0000 0.0000 0.0000 0.0000 0.0000 0.0000 0.0004 0.0000 0.0000 0.0000 0.0000 0.0000 0.0000 0.0000 0.0004 0.0000 0.0000 0.0000 0.0000 0.0000 0.0000 0.0001 0.0000 0.0000 0.0000 0.0000 0.0000 0.0000 0.0000 0.0000 0.0000 0.0000 0.0000 0.0000 0.0000 0.0000 0.0001 0.0002 0.0000 0.0001 0.0001 0.0000 0.0000 0.0000 0.0000 0.0000 0.0000 0.0000 0.0000
0.0000 0.0001 0.0001 0.0000 0.0000 0.0000 0.0000 0.0000 0.0000 0.0000 0.0000 0.0000 0.0000 0.0000 0.0000 0.0000 0.0002 0.0000 0.0000 0.0000 0.0000 0.0000 0.0000 0.0000 0.0002 0.0000 0.0000 0.0000 0.0000 0.0000 0.0000 0.0001 0.0000 0.0000 0.0000 0.0000 0.0000 0.0000 0.0001 0.0000 0.0000 0.0000 0.0000 0.0000 0.0000 0.0000 0.0000 0.0001 0.0000 0.0001 0.0001 0.0000 0.0000 0.0000 0.0000 0.0000 0.0000 0.0000 0.0000
0.0001 0.0001 0.0001 0.0001 0.0001 0.0001 0.0000 0.0000 0.0000 0.0001 0.0000 0.0000 0.0000 0.0000 0.0000 0.0000 0.0006 0.0001 0.0001 0.0001 0.0001 0.0001 0.0000 0.0001 0.0003 0.0000 0.0000 0.0001 0.0001 0.0001 0.0001 0.0001 0.0001 0.0000 0.0000 0.0001 0.0001 0.0000 0.0001 0.0001 0.0000 0.0001 0.0000 0.0000 0.0001 0.0001 0.0001 0.0002 0.0001 0.0001 0.0001 0.0000 0.0000 0.0001 0.0000 0.0001 0.0000 0.0001 0.0001
0.0002 0.0005 0.0003 0.0002 0.0004 0.0002 0.0001 0.0002 0.0001 0.0002 0.0001 0.0001 0.0001 0.0001 0.0001 0.0002 0.0026 0.0002 0.0002 0.0002 0.0002 0.0003 0.0001 0.0003 0.0013 0.0002 0.0001 0.0002 0.0002 0.0002 0.0002 0.0004 0.0003 0.0001 0.0001 0.0002 0.0003 0.0001 0.0003 0.0002 0.0001 0.0002 0.0001 0.0001 0.0003 0.0002 0.0004 0.0011 0.0002 0.0004 0.0004 0.0002 0.0001 0.0002 0.0001 0.0002 0.0002 0.0002 0.0002
0.0005 0.0015 0.0012 0.0005 0.0009 0.0006 0.0003 0.0005 0.0004 0.0005 0.0003 0.0003 0.0003 0.0004 0.0004 0.0005 0.0078 0.0007 0.0007 0.0006 0.0006 0.0009 0.0004 0.0009 0.0044 0.0005 0.0005 0.0005 0.0006 0.0005 0.0005 0.0013 0.0010 0.0004 0.0004 0.0006 0.0008 0.0003 0.0010 0.0007 0.0003 0.0005 0.0004 0.0003 0.0010 0.0006 0.0013 0.0033 0.0006 0.0013 0.0014 0.0005 0.0004 0.0008 0.0004 0.0007 0.0005 0.0005 0.0006
0.0013 0.0040 0.0028 0.0014 0.0020 0.0016 0.0009 0.0013 0.0009 0.0013 0.0007 0.0007 0.0009 0.0011 0.0011 0.0013 0.0191 0.0020 0.0018 0.0016 0.0017 0.0022 0.0010 0.0028 0.0107 0.0013 0.0013 0.0014 0.0015 0.0012 0.0014 0.0035 0.0021 0.0010 0.0010 0.0014 0.0021 0.0007 0.0025 0.0018 0.0008 0.0013 0.0011 0.0008 0.0022 0.0017 0.0029 0.0085 0.0016 0.0033 0.0036 0.0015 0.0011 0.0022 0.0012 0.0019 0.0014 0.0013 0.0015
0.0031 0.0077 0.0056 0.0027 0.0066 0.0031 0.0017 0.0029 0.0023 0.0026 0.0015 0.0014 0.0021 0.0025 0.0022 0.0022 0.0289 0.0030 0.0031 0.0028 0.0031 0.0037 0.0019 0.0050 0.0180 0.0025 0.0023 0.0030 0.0033 0.0026 0.0029 0.0069 0.0049 0.0020 0.0022 0.0027 0.0065 0.0013 0.0047 0.0029 0.0015 0.0027 0.0020 0.0015 0.0040 0.0027 0.0053 0.0124 0.0029 0.0057 0.0059 0.0026 0.0018 0.0038 0.0021 0.0036 0.0026 0.0024 0.0029
0.0045 0.0114 0.0099 0.0045 0.0112 0.0042 0.0026 0.0053 0.0032 0.0042 0.0021 0.0022 0.0034 0.0038 0.0031 0.0034 0.0412 0.0048 0.0053 0.0043 0.0047 0.0055 0.0027 0.0068 0.0238 0.0037 0.0032 0.0044 0.0048 0.0046 0.0041 0.0097 0.0083 0.0031 0.0037 0.0041 0.0102 0.0021 0.0072 0.0045 0.0023 0.0048 0.0032 0.0022 0.0059 0.0041 0.0069 0.0190 0.0042 0.0093 0.0079 0.0038 0.0028 0.0055 0.0032 0.0051 0.0041 0.0035 0.0043
0.0062 0.0139 0.0124 0.0053 0.0125 0.0052 0.0031 0.0064 0.0043 0.0047 0.0027 0.0027 0.0044 0.0046 0.0038 0.0039 0.0318 0.0058 0.0059 0.0050 0.0057 0.0065 0.0035 0.0083 0.0263 0.0046 0.0042 0.0054 0.0061 0.0070 0.0056 0.0113 0.0105 0.0035 0.0041 0.0048 0.0117 0.0027 0.0091 0.0045 0.0030 0.0058 0.0038 0.0026 0.0059 0.0052 0.0070 0.0146 0.0047 0.0111 0.0089 0.0052 0.0041 0.0069 0.0041 0.0061 0.0050 0.0044 0.0053
0.0072 0.0157 0.0124 0.0062 0.0144 0.0057 0.0036 0.0068 0.0049 0.0054 0.0029 0.0028 0.0051 0.0058 0.0048 0.0043 0.0375 0.0065 0.0061 0.0053 0.0064 0.0072 0.0039 0.0084 0.0263 0.0051 0.0047 0.0060 0.0068 0.0074 0.0065 0.0132 0.0114 0.0037 0.0046 0.0053 0.0135 0.0028 0.0093 0.0050 0.0033 0.0071 0.0043 0.0028 0.0066 0.0059 0.0082 0.0170 0.0056 0.0112 0.0095 0.0058 0.0045 0.0071 0.0045 0.0065 0.0055 0.0048 0.0059
0.0066 0.0168 0.0122 0.0062 0.0120 0.0056 0.0036 0.0055 0.0052 0.0052 0.0029 0.0029 0.0054 0.0058 0.0045 0.0047 0.0409 0.0073 0.0066 0.0058 0.0064 0.0073 0.0041 0.0095 0.0260 0.0056 0.0051 0.0063 0.0068 0.0067 0.0064 0.0138 0.0107 0.0043 0.0045 0.0054 0.0127 0.0029 0.0096 0.0049 0.0035 0.0071 0.0045 0.0029 0.0067 0.0061 0.0077 0.0196 0.0060 0.0119 0.0096 0.0062 0.0044 0.0085 0.0046 0.0071 0.0063 0.0050 0.0064
0.0058 0.0160 0.0120 0.0061 0.0103 0.0056 0.0036 0.0052 0.0056 0.0054 0.0030 0.0027 0.0053 0.0052 0.0045 0.0040 0.0297 0.0059 0.0058 0.0052 0.0062 0.0060 0.0038 0.0080 0.0232 0.0056 0.0047 0.0052 0.0066 0.0063 0.0056 0.0131 0.0103 0.0052 0.0042 0.0053 0.0116 0.0029 0.0100 0.0044 0.0037 0.0068 0.0042 0.0029 0.0063 0.0057 0.0069 0.0137 0.0059 0.0096 0.0086 0.0055 0.0046 0.0078 0.0046 0.0069 0.0053 0.0051 0.0061
0.0060 0.0155 0.0118 0.0060 0.0103 0.0053 0.0035 0.0054 0.0059 0.0052 0.0029 0.0027 0.0061 0.0052 0.0045 0.0042 0.0403 0.0058 0.0061 0.0052 0.0060 0.0064 0.0040 0.0093 0.0223 0.0051 0.0050 0.0050 0.0073 0.0064 0.0056 0.0126 0.0105 0.0049 0.0042 0.0049 0.0117 0.0029 0.0100 0.0048 0.0038 0.0074 0.0041 0.0028 0.0074 0.0055 0.0084 0.0190 0.0059 0.0107 0.0085 0.0054 0.0051 0.0070 0.0044 0.0063 0.0049 0.0051 0.0060
0.0058 0.0149 0.0112 0.0059 0.0111 0.0051 0.0035 0.0051 0.0057 0.0051 0.0028 0.0025 0.0060 0.0053 0.0042 0.0039 0.0320 0.0050 0.0057 0.0049 0.0060 0.0052 0.0037 0.0083 0.0208 0.0050 0.0043 0.0052 0.0068 0.0055 0.0053 0.0124 0.0103 0.0045 0.0041 0.0050 0.0119 0.0027 0.0094 0.0044 0.0036 0.0075 0.0040 0.0027 0.0063 0.0051 0.0079 0.0147 0.0057 0.0096 0.0077 0.0050 0.0039 0.0066 0.0042 0.0062 0.0048 0.0047 0.0057
0.0050 0.0146 0.0105 0.0056 0.0093 0.0047 0.0030 0.0046 0.0045 0.0048 0.0026 0.0024 0.0042 0.0048 0.0040 0.0038 0.0380 0.0053 0.0056 0.0045 0.0057 0.0053 0.0034 0.0068 0.0188 0.0048 0.0042 0.0052 0.0057 0.0053 0.0051 0.0120 0.0091 0.0040 0.0038 0.0045 0.0089 0.0027 0.0091 0.0043 0.0031 0.0055 0.0038 0.0025 0.0068 0.0050 0.0086 0.0171 0.0055 0.0093 0.0073 0.0050 0.0036 0.0060 0.0038 0.0058 0.0051 0.0047 0.0053
0.0046 0.0142 0.0101 0.0057 0.0069 0.0045 0.0028 0.0047 0.0036 0.0041 0.0024 0.0023 0.0032 0.0043 0.0039 0.0035 0.0263 0.0049 0.0051 0.0042 0.0053 0.0047 0.0037 0.0078 0.0184 0.0047 0.0041 0.0053 0.0051 0.0052 0.0050 0.0117 0.0078 0.0041 0.0034 0.0043 0.0062 0.0026 0.0085 0.0032 0.0029 0.0048 0.0037 0.0024 0.0055 0.0048 0.0066 0.0122 0.0051 0.0089 0.0068 0.0049 0.0039 0.0065 0.0039 0.0057 0.0052 0.0043 0.0052
0.0043 0.0127 0.0102 0.0053 0.0106 0.0042 0.0027 0.0048 0.0036 0.0040 0.0023 0.0022 0.0032 0.0042 0.0037 0.0038 0.0353 0.0047 0.0049 0.0043 0.0048 0.0052 0.0034 0.0080 0.0160 0.0046 0.0038 0.0047 0.0049 0.0047 0.0044 0.0104 0.0081 0.0038 0.0034 0.0042 0.0085 0.0023 0.0076 0.0037 0.0027 0.0050 0.0035 0.0024 0.0060 0.0045 0.0074 0.0166 0.0049 0.0089 0.0066 0.0045 0.0040 0.0065 0.0036 0.0053 0.0046 0.0039 0.0049
0.0046 0.0119 0.0112 0.0049 0.0197 0.0043 0.0029 0.0050 0.0039 0.0044 0.0022 0.0022 0.0040 0.0044 0.0033 0.0033 0.0253 0.0039 0.0041 0.0045 0.0049 0.0041 0.0033 0.0063 0.0148 0.0042 0.0039 0.0041 0.0053 0.0052 0.0045 0.0103 0.0104 0.0034 0.0041 0.0041 0.0135 0.0023 0.0075 0.0039 0.0027 0.0058 0.0034 0.0023 0.0046 0.0042 0.0059 0.0115 0.0048 0.0069 0.0058 0.0038 0.0033 0.0059 0.0033 0.0048 0.0042 0.0038 0.0045
0.0051 0.0115 0.0082 0.0045 0.0206 0.0040 0.0028 0.0043 0.0035 0.0037 0.0020 0.0021 0.0036 0.0046 0.0035 0.0029 0.0162 0.0036 0.0041 0.0037 0.0045 0.0036 0.0033 0.0064 0.0144 0.0038 0.0035 0.0042 0.0055 0.0042 0.0048 0.0101 0.0094 0.0039 0.0043 0.0038 0.0140 0.0022 0.0067 0.0025 0.0024 0.0056 0.0031 0.0021 0.0046 0.0038 0.0045 0.0079 0.0040 0.0071 0.0057 0.0037 0.0032 0.0053 0.0031 0.0044 0.0038 0.0036 0.0042
0.0045 0.0110 0.0085 0.0044 0.0171 0.0037 0.0024 0.0041 0.0031 0.0035 0.0020 0.0019 0.0035 0.0041 0.0032 0.0030 0.0297 0.0037 0.0038 0.0034 0.0043 0.0037 0.0030 0.0058 0.0132 0.0036 0.0032 0.0042 0.0049 0.0040 0.0044 0.0092 0.0093 0.0043 0.0038 0.0037 0.0105 0.0021 0.0071 0.0029 0.0023 0.0054 0.0031 0.0020 0.0053 0.0037 0.0073 0.0124 0.0043 0.0062 0.0052 0.0035 0.0031 0.0048 0.0030 0.0042 0.0036 0.0035 0.0041
0.0037 0.0107 0.0073 0.0038 0.0106 0.0034 0.0020 0.0040 0.0028 0.0030 0.0018 0.0017 0.0027 0.0035 0.0030 0.0026 0.0170 0.0042 0.0039 0.0034 0.0039 0.0039 0.0029 0.0052 0.0131 0.0034 0.0029 0.0041 0.0040 0.0032 0.0040 0.0087 0.0070 0.0036 0.0031 0.0033 0.0074 0.0020 0.0061 0.0023 0.0021 0.0040 0.0028 0.0018 0.0038 0.0036 0.0043 0.0083 0.0034 0.0068 0.0050 0.0035 0.0029 0.0046 0.0028 0.0043 0.0036 0.0032 0.0038
0.0041 0.0097 0.0074 0.0036 0.0083 0.0033 0.0020 0.0036 0.0027 0.0030 0.0017 0.0017 0.0027 0.0032 0.0028 0.0024 0.0180 0.0034 0.0039 0.0030 0.0037 0.0035 0.0025 0.0051 0.0119 0.0033 0.0028 0.0037 0.0044 0.0036 0.0037 0.0080 0.0073 0.0028 0.0028 0.0031 0.0067 0.0018 0.0057 0.0024 0.0021 0.0037 0.0027 0.0018 0.0040 0.0033 0.0045 0.0085 0.0037 0.0061 0.0047 0.0032 0.0031 0.0047 0.0026 0.0040 0.0038 0.0030 0.0036
0.0042 0.0090 0.0081 0.0035 0.0098 0.0031 0.0020 0.0033 0.0029 0.0028 0.0016 0.0016 0.0030 0.0034 0.0028 0.0024 0.0158 0.0039 0.0041 0.0028 0.0036 0.0035 0.0025 0.0068 0.0111 0.0033 0.0026 0.0040 0.0046 0.0043 0.0038 0.0075 0.0086 0.0026 0.0026 0.0029 0.0073 0.0017 0.0055 0.0023 0.0020 0.0043 0.0026 0.0016 0.0035 0.0034 0.0036 0.0077 0.0032 0.0068 0.0043 0.0034 0.0030 0.0053 0.0025 0.0038 0.0041 0.0028 0.0033
0.0043 0.0085 0.0079 0.0034 0.0109 0.0029 0.0019 0.0033 0.0027 0.0028 0.0015 0.0015 0.0027 0.0033 0.0026 0.0022 0.0127 0.0034 0.0032 0.0026 0.0034 0.0032 0.0024 0.0051 0.0101 0.0030 0.0025 0.0037 0.0046 0.0041 0.0037 0.0070 0.0086 0.0024 0.0029 0.0028 0.0077 0.0017 0.0052 0.0019 0.0019 0.0040 0.0024 0.0015 0.0031 0.0032 0.0035 0.0063 0.0030 0.0055 0.0042 0.0030 0.0029 0.0043 0.0023 0.0036 0.0033 0.0027 0.0032
0.0039 0.0082 0.0069 0.0031 0.0082 0.0028 0.0018 0.0032 0.0023 0.0023 0.0015 0.0014 0.0023 0.0029 0.0023 0.0020 0.0146 0.0032 0.0031 0.0024 0.0032 0.0030 0.0022 0.0043 0.0094 0.0028 0.0024 0.0032 0.0041 0.0037 0.0034 0.0066 0.0071 0.0021 0.0025 0.0026 0.0065 0.0015 0.0049 0.0019 0.0016 0.0034 0.0023 0.0014 0.0033 0.0028 0.0036 0.0068 0.0029 0.0048 0.0037 0.0026 0.0027 0.0041 0.0022 0.0033 0.0033 0.0025 0.0030
