Fp1 Fz F3 F7 FC5 FC1 C3 T7 CP5 CP1 Pz P3 P7 O1 Oz O2 P4 P8 CP6 CP2 FCz C4 T8 FC6 FC2 F4 F8 Fp2 AF7 AF3 Fpz F1 F5 FT7 FC3 C1 C5 CP3 CPz P1 P5 PO7 PO3 POz PO4 PO8 P6 P2 CP4 C6 C2 FC4 FT8 F6 F2 AF4 AF8 Cz AFz
3.0635 4.2745 2.7006 5.4919 1.4691 2.7358 1.2466 2.7511 1.0294 1.2115 1.0138 1.3466 3.1098 3.0473 1.8051 1.7418 1.0309 2.3332 1.1493 0.9958 3.3882 1.1849 1.8063 2.0578 1.9216 2.7887 7.2030 5.5700 5.0057 4.3233 4.0366 2.6782 6.1792 2.4782 1.3977 1.1683 1.4847 1.4714 1.5290 1.0438 1.8527 2.7856 2.5586 2.5091 2.0262 2.5797 1.5525 0.8195 1.0682 1.6533 1.0568 1.1824 3.7164 8.2327 3.2014 6.4919 5.8749 1.5009 4.8552
48.3037 50.3160 38.0917 127.7765 16.4449 29.2960 17.4659 35.6893 11.4021 13.1585 10.9436 11.4912 29.9514 29.5157 21.8220 18.0645 11.5982 28.2125 11.9734 11.5440 33.6920 15.0088 21.2577 28.4944 26.8156 32.4455 156.1257 79.8096 117.1218 68.6098 43.9799 31.5135 148.3717 34.3284 18.0631 12.4910 21.4389 14.2373 16.3281 10.2372 19.7904 32.7821 25.4449 28.0724 19.8394 30.7669 19.2691 8.5017 9.9132 19.9867 15.0167 16.5524 56.5716 187.9356 38.0493 103.6999 124.3520 17.7185 52.0379
1065.9236 1376.5776 856.9860 1663.8861 472.2736 686.3443 387.6290 872.8513 303.1238 363.8047 347.1042 327.3864 753.7193 713.2200 704.7678 437.7144 367.9810 907.3244 392.1631 348.8042 1065.4907 386.0211 706.7025 635.9583 615.2645 798.2081 1990.2286 1756.2094 1622.8589 1387.7360 1282.9463 869.3063 1947.9548 851.2560 438.5000 346.5941 525.5894 307.5429 495.7282 297.9761 562.1395 1030.9083 773.4407 919.6650 566.7026 953.6719 619.1312 261.7831 356.7407 569.8583 421.6936 389.5935 1133.7677 2483.7869 927.7247 1917.8079 1865.3483 514.6503 1327.2454
2469.6592 3302.5120 2069.2649 2017.3279 1006.2700 1216.2983 927.4305 1864.3909 715.4722 861.3760 933.4565 897.7883 1821.2782 1317.4047 1336.8939 792.6703 973.2137 2241.5405 987.6927 870.6077 2753.8215 848.8256 1569.8019 1300.3079 1343.9818 1928.5571 2262.8586 4347.2524 2220.5474 3015.6648 3548.4670 2057.7285 2425.2217 1933.5952 1099.2375 786.4598 1003.9381 750.0250 1274.6522 772.7050 1454.0684 2344.0105 1762.5261 2044.3778 1226.4314 2109.7747 1565.8884 712.7878 929.6298 1203.9401 851.8026 860.6293 2203.7722 2733.8293 2184.3809 4339.7153 2883.5654 1193.1921 3351.6074
2227.8186 3039.3403 2110.1350 1365.2008 868.3311 1298.9739 875.4088 1618.2289 813.6572 849.1177 981.3749 1023.1990 1483.0142 1160.4047 1097.7426 724.7725 1192.9984 1833.2277 1166.6934 863.8363 2668.6660 922.8406 1369.6832 1103.6908 1364.7406 1943.2998 1360.8162 4029.3682 1786.5093 2944.2341 3203.8450 2061.4670 1817.3741 1405.2307 1113.8356 780.6932 935.6907 772.3988 1262.3228 843.9095 1400.8657 2010.8243 1716.3756 1844.9879 1262.1870 1784.2354 1487.4766 828.9620 1173.6841 1223.5540 782.5543 847.8823 1499.6300 1834.4081 2327.6033 4209.5063 2373.6436 1171.0269 3370.5869
1623.4891 2170.1638 1744.6975 884.1129 599.5565 1124.7698 613.9944 1058.4647 623.3179 548.3981 735.6033 795.5305 945.4055 798.3395 744.5380 555.1664 960.5372 1101.2114 822.1199 584.0739 2013.8068 658.0843 909.5773 777.2526 1086.4478 1753.0242 812.2742 2976.4656 1343.2172 2271.5820 2259.8523 1683.6334 1328.3508 787.7598 898.1530 533.6525 680.8206 567.9135 848.2659 653.0618 980.8911 1287.5066 1263.3375 1344.7136 1014.1761 1121.6311 1033.2354 675.3510 842.8240 860.4546 544.6487 672.0970 899.0993 1336.9651 1864.5087 3317.1909 1715.9817 841.0223 2501.4292
1127.4403 1526.8438 1284.0178 593.0303 426.0011 848.3370 419.4388 638.5530 419.7204 398.0497 471.2304 506.9769 617.2299 495.5066 464.3301 385.6478 540.1602 668.3259 475.8347 424.7765 1482.7231 456.6349 545.3456 537.7310 833.9570 1253.6968 535.6990 2145.6099 944.4102 1621.3973 1611.3481 1211.9304 966.0851 448.1780 651.3404 395.7278 467.4515 405.4966 583.9897 422.6940 630.3654 817.0611 768.1655 795.2338 647.7141 718.2458 599.0969 416.6456 512.6893 545.1660 409.1325 504.8167 549.7814 939.7461 1327.7153 2331.8970 1210.0050 621.7576 1758.7561
854.6716 1104.2389 922.4197 435.8936 313.9796 614.0494 292.0859 443.9164 277.9682 280.7226 285.2708 297.0172 408.2432 306.1619 300.5742 243.1076 306.5531 412.4745 303.3702 303.0585 1056.9829 307.6357 387.5576 397.2058 609.8572 934.7424 401.8909 1459.1506 730.0286 1186.6881 1112.6846 879.5181 728.7998 304.5421 471.8935 287.3453 326.7198 266.8329 402.4754 252.7197 388.8283 510.2020 448.7063 479.5276 378.1695 437.2325 353.7808 246.2876 317.2008 379.6059 307.9970 390.6593 364.3307 733.8020 962.5742 1587.8501 891.5182 447.7446 1220.5647
573.6725 760.0339 662.5328 310.8035 222.7746 470.5970 208.6447 313.4810 186.8972 196.8452 174.9498 190.4273 269.7796 205.8374 202.6015 171.4484 201.2257 283.9574 196.9583 211.2086 756.8275 223.3067 261.2143 284.9025 451.3402 622.4315 277.2605 967.3986 527.4349 796.2000 725.2505 619.7314 527.6142 200.0591 362.1532 219.0629 229.0606 181.7077 276.8290 158.3671 259.2154 340.7985 302.9530 308.2879 249.0026 311.7971 238.9728 151.3658 222.0397 253.3388 240.9847 298.5849 257.2339 503.2649 644.5706 988.0879 581.4385 330.3360 782.4147
422.1353 542.6570 475.2444 216.5959 158.4044 391.7211 151.4351 223.5866 130.5692 142.7153 130.9336 136.6853 203.6227 147.9083 156.7956 124.6932 151.5341 208.5685 141.9658 158.1167 592.9146 153.0372 185.6005 197.2744 340.7144 417.2319 190.3674 659.5211 379.1921 570.5743 500.4655 455.7993 370.2264 144.6685 268.9889 178.5008 159.8152 134.2690 206.5723 113.6800 185.0031 240.3360 213.6407 228.0312 187.0828 223.1936 174.2679 118.5176 155.7526 177.3557 188.9077 208.4008 184.6987 336.2086 443.4977 668.1942 394.6340 269.6439 528.3922
288.4817 390.9828 331.9204 166.6662 120.4859 297.0551 115.4190 160.5369 98.5513 119.7535 98.9357 97.7349 146.0209 110.4455 122.0892 103.5354 108.8844 159.3890 105.6594 125.5838 447.2895 122.5151 135.1007 147.4667 257.7681 291.1488 145.8463 403.3630 274.2742 392.2294 309.3099 323.8205 275.9676 105.8315 193.2757 145.5926 116.8599 103.5203 170.2252 86.8220 131.0374 174.5262 150.5149 164.0143 140.8773 168.8268 130.2455 85.6439 113.7918 133.3258 155.0178 157.8966 131.1228 251.2993 308.0851 416.5266 278.7047 217.7657 339.1328
200.2928 265.4760 254.0774 128.8711 96.7560 231.5097 90.6204 134.3786 77.7475 94.7257 72.3842 82.7734 124.2957 96.3957 98.3862 85.7881 87.6338 115.4278 79.9802 100.9604 324.3170 96.2338 106.5996 118.4013 206.6630 226.0013 109.6965 259.0323 201.8707 272.9995 199.8863 230.3882 202.7161 88.0962 165.8840 115.5541 89.8622 82.5937 134.1079 66.7467 111.3048 148.2502 127.7822 127.6472 115.2541 134.1366 99.7679 64.6661 90.2111 101.6284 126.7610 132.9222 104.9520 189.4895 229.7645 276.9280 177.8674 168.2536 217.5742
136.6634 216.2616 177.2268 91.8039 73.5932 192.7247 76.3950 104.2711 63.2766 75.3440 59.9877 66.1664 94.7983 78.3261 81.4423 71.0709 68.0966 93.4631 61.2849 84.3318 274.5855 76.7503 79.6689 88.0300 173.4265 162.4991 81.2461 168.0609 137.8388 182.5042 129.9304 182.4269 137.0952 68.1791 127.4450 93.0040 72.2251 69.8821 111.0795 53.4819 86.8223 115.5773 103.0787 102.7171 91.5671 110.4949 78.7481 54.2145 69.4055 77.3361 107.0032 103.8632 75.7410 136.8537 177.9300 184.5296 124.7761 142.1316 151.1025
95.2467 182.0275 131.0084 74.6545 59.8011 168.1267 64.8409 90.1356 52.1362 63.9817 49.0373 55.8028 83.7851 66.6648 75.2528 63.2316 60.1999 76.6804 53.0737 70.7932 232.3745 60.9528 67.9691 67.9178 141.0273 130.3432 66.5818 119.7427 100.5844 130.7495 90.7213 149.1756 104.3690 58.8533 104.6904 85.3331 56.3806 58.0853 92.1369 44.4727 73.9416 99.0985 87.4773 91.3329 80.5335 89.6550 65.6087 46.2576 60.5180 62.4699 90.2500 79.5419 59.8839 112.7775 145.4760 141.4440 100.6434 121.7963 120.6434
76.4011 148.2302 108.9396 63.3822 51.2254 138.4077 55.0334 76.9637 46.2724 55.6302 42.6778 47.7831 72.3852 59.1799 70.5653 59.1876 50.4370 67.9865 44.1888 63.5232 193.5417 53.6383 57.7249 56.7106 124.2427 98.9708 54.8728 98.7166 82.6123 102.5401 75.7357 120.1277 87.3408 48.7347 89.1312 71.5803 49.4194 48.9246 82.5971 38.8110 63.6121 85.1722 76.6595 80.1135 70.2642 81.4890 56.7601 39.0865 53.5215 52.6890 81.1128 65.7210 52.2372 83.8407 120.2747 112.1413 77.4358 105.2732 96.4532
65.0406 124.0384 87.0464 56.5848 44.2221 117.1441 46.8430 66.7637 39.2969 51.0614 38.3995 41.6307 65.8197 54.0680 65.5858 53.8627 44.3457 60.7521 38.4641 59.3178 163.8416 47.6223 47.0033 48.0334 104.7320 84.8921 48.2065 79.7109 69.6095 84.7953 65.5474 99.3814 72.5909 43.6141 72.4814 62.7144 41.3755 43.2398 77.2910 34.7492 55.8380 77.3513 68.5410 72.5630 63.3323 72.3375 50.5758 35.3850 47.3989 45.3453 73.0656 56.3201 43.4751 72.4711 101.9742 93.3019 63.5389 94.2076 82.7292
55.5600 110.6921 72.9865 47.4338 39.5703 101.4384 41.6811 56.9633 34.0016 46.5563 33.8464 35.9048 57.8385 48.4197 64.9063 51.3523 37.3146 55.8754 33.9567 52.1001 147.5007 42.7114 41.3419 42.9170 94.0880 74.4476 42.0719 69.1379 58.3326 72.7371 55.8949 87.1105 59.9399 37.7487 61.8990 55.7477 36.3436 39.2346 69.1181 30.5335 47.6892 67.6836 59.6278 67.4509 55.7699 64.2165 44.5723 30.5469 41.4078 40.1046 64.9016 49.4975 38.3625 63.4608 90.9330 81.7012 55.8345 85.4395 73.8356
49.2013 101.0533 64.3424 42.2780 34.3039 85.8386 37.7307 50.2787 31.2980 41.2390 30.7192 32.8613 55.1747 45.2662 59.2944 46.1192 32.7800 51.1910 29.7934 48.5920 130.3785 37.9198 36.4491 39.5442 83.3010 63.9191 38.3331 62.1916 51.7422 65.8780 49.9858 76.8214 52.8589 34.7939 52.3017 47.2415 33.4436 36.5451 62.5011 27.2895 44.2604 63.7699 54.2694 59.5738 49.2770 61.4205 39.9180 27.7587 36.7578 36.6071 59.8079 42.7520 35.6692 54.3630 82.7864 73.8645 48.9301 75.1587 68.2432
41.9645 85.4437 54.1324 38.2049 29.3824 76.0991 31.4851 44.0848 27.8807 37.2304 27.0873 27.6647 48.9117 40.9848 58.2922 43.2760 31.6033 48.2492 27.9710 43.2604 111.9931 33.2432 32.2442 33.1448 73.6540 58.0150 32.0826 51.2797 45.0150 55.6525 41.5257 66.5116 45.7717 28.9664 45.2689 41.8911 28.1679 29.9214 57.7169 23.9773 38.6312 56.1740 47.9054 55.8930 45.9923 55.4957 39.0302 24.6312 33.8209 32.1926 52.7175 37.6911 30.1700 47.9433 71.6894 63.5318 41.0673 67.1408 57.4673
35.5816 78.2934 48.4403 32.6060 25.7220 66.7237 27.4585 39.5133 24.0186 33.3563 24.6123 25.0997 45.9953 38.2081 57.4006 41.4589 27.4832 43.9197 24.0794 39.3311 102.2328 27.9515 29.1314 30.3145 64.4746 49.9599 27.9996 46.2451 39.2055 47.1151 34.7611 58.8302 40.7681 25.6875 40.4198 36.5989 25.0749 26.6285 53.3056 22.0181 35.0020 52.9211 43.5161 51.0946 41.5954 51.1905 34.3003 22.0801 29.1854 28.5744 46.6812 32.2768 26.4332 42.8203 63.4266 55.7400 37.6673 61.5224 49.6466
31.0393 68.5348 41.8399 30.3978 23.8534 58.2212 24.5425 35.4325 21.4162 30.7303 22.8404 22.0664 43.6153 36.7097 59.6580 40.5284 23.4159 44.5384 22.1653 35.9527 88.6622 25.8647 24.9041 26.1001 56.7543 45.1054 24.9784 39.0411 35.1726 40.0827 29.3647 51.5744 36.6974 23.5563 34.9473 33.2364 22.3904 24.2337 48.1344 20.1360 31.4693 48.9180 40.3478 50.9624 37.7515 47.9901 32.2919 19.8862 26.3075 25.4280 41.4770 29.1712 23.0139 38.5351 55.7049 47.9854 32.9876 54.6029 42.2639
27.4903 60.0274 35.4734 27.1123 21.5639 49.5190 22.4045 30.9157 19.9643 27.0218 19.3565 20.2300 41.5527 34.6975 56.8988 37.8487 21.5397 41.4391 19.7908 31.0091 77.9490 21.1786 22.8465 23.7922 49.0592 37.5346 22.2612 33.9571 30.7743 35.1723 25.6423 44.4962 31.6033 21.2123 29.6114 28.4114 21.1423 22.1903 42.3053 17.7117 29.4005 47.7378 37.8686 46.3805 34.6787 45.6992 30.6656 17.2707 22.3143 22.8083 36.0990 24.7679 20.3634 33.4962 47.7652 40.6789 29.3986 48.6772 36.8456
22.8233 50.7802 31.8067 23.2591 19.6431 43.3695 19.7533 28.3786 17.6867 25.7877 18.1547 18.1867 38.5346 32.8220 54.1538 35.4013 19.5178 40.3773 17.3746 29.3025 66.4706 19.3729 21.3065 21.6195 43.9278 35.6529 20.6187 27.9478 25.2894 29.2724 21.2886 37.5281 28.2222 19.7865 27.1584 25.5211 18.2298 20.7396 39.8303 16.2801 27.0561 45.2266 34.7854 43.2108 32.0449 43.5627 29.1968 15.7237 19.7372 20.4310 33.4991 23.1278 19.6897 30.9419 42.9287 35.5535 25.3190 43.0396 30.9549
20.3722 44.0701 29.4848 21.3274 17.7318 38.9608 17.3575 25.9844 15.5292 22.9355 16.3579 17.1472 36.9695 30.7692 54.2693 35.3447 18.3864 38.6611 15.8347 26.8843 59.0301 18.0556 19.3767 20.2049 38.0798 29.6189 19.1075 23.8022 23.1498 26.7195 18.6981 34.3629 25.9450 18.2126 24.1300 23.0217 15.8767 18.1136 35.1932 14.7455 25.7826 42.4169 32.4943 41.9605 30.7257 39.5420 27.3498 14.9037 18.9130 17.7769 30.4870 20.2368 18.2469 28.1483 35.5764 29.7229 21.9483 38.4979 26.7474
17.0641 38.4225 24.1608 18.5149 15.4785 34.3679 16.1312 24.1299 14.2306 20.1266 14.6379 15.0781 34.8000 29.3736 52.5656 32.7872 15.9305 39.0006 14.8205 23.0387 51.3324 15.9019 17.9143 17.3676 33.3285 26.4989 16.0899 20.9098 19.8538 21.7738 15.6857 29.0449 21.6149 16.0786 21.1493 19.8894 14.7722 16.5934 30.0247 13.5646 23.1508 39.8046 29.7635 38.5375 27.5038 39.3550 26.6288 12.5368 16.4897 16.5124 26.0842 18.3968 16.1571 24.1119 31.1966 26.2797 19.0005 32.4865 22.9016
15.6925 34.4030 22.6085 16.5472 13.6820 29.1189 13.9483 23.1289 13.2915 18.8048 13.8830 14.2043 32.8172 28.4256 51.8324 32.2164 15.2679 35.4771 13.5868 20.3362 45.4977 14.1157 16.4913 15.1868 31.3873 24.5328 14.9823 19.2347 18.0694 20.6982 14.4451 25.3953 20.1687 15.1437 18.6599 17.5924 13.5037 15.0148 27.5513 12.9857 21.4660 37.2422 27.7652 36.8472 26.6235 36.4234 24.6507 11.9182 14.7824 15.1980 23.3071 16.3698 14.9628 21.3852 29.4731 24.5388 17.3692 28.7739 21.1756
14.1155 29.8365 19.4517 14.8886 12.5062 27.5172 12.6922 22.5616 11.9630 16.2174 12.5832 13.1851 31.1862 26.1817 48.7715 31.3847 14.5573 34.6665 13.4020 17.4140 39.7958 12.5808 15.3099 14.5238 27.7002 20.7508 13.7094 16.8730 15.3689 18.2357 13.2379 23.1081 16.7280 14.5528 17.0215 15.8956 12.4644 13.4042 23.6489 11.8948 20.2773 36.9800 25.8827 34.3799 25.5720 35.2681 24.2049 10.7886 13.2240 14.4140 20.8069 14.9240 13.7903 19.2979 24.7958 20.5604 15.3529 25.3556 18.6422
11.9070 26.4769 17.9412 13.9405 11.7243 24.7638 11.7585 21.0251 11.3670 14.3657 11.5917 12.1754 29.6596 23.4154 44.2445 28.6403 12.6620 31.3537 12.2277 15.5559 36.0262 11.8161 14.1796 13.0130 25.6927 19.3797 12.4472 15.2820 13.8446 15.8848 11.5187 20.7095 16.0328 13.4847 15.5806 14.1447 11.5198 12.4794 20.8847 10.6519 19.4794 33.7925 23.4818 32.4482 23.4449 31.1257 21.3222 9.9090 11.8191 12.8975 19.4845 13.9834 12.5298 17.8807 22.2015 19.0243 13.7760 22.7991 16.1695
11.2105 24.6860 16.4971 12.5656 10.3782 22.8401 10.7942 19.0978 10.6050 13.5342 10.8230 11.6205 27.9329 22.5075 40.0510 25.8794 12.1074 30.0679 11.6158 14.7424 32.8708 10.7758 13.3679 11.6824 23.5148 16.8836 11.6016 13.5886 12.7622 15.0960 10.1988 19.2626 14.0470 12.2461 14.2770 13.0858 10.5627 11.4892 19.7101 10.3895 18.2814 31.9920 23.1121 29.5296 22.0464 29.3094 20.6835 9.0628 10.7427 12.3518 17.7685 11.8703 11.6866 16.1606 20.1702 16.9318 12.9004 20.9036 15.0918
9.7158 22.1148 15.0694 11.2809 9.9178 20.3786 9.7738 18.6788 10.2085 11.9640 10.1020 10.6599 25.5480 20.7564 37.8800 24.5692 11.6165 28.8592 10.7270 12.8734 29.2273 9.7755 12.4684 10.8564 21.2562 16.0334 10.3186 11.8192 11.3048 13.1029 8.9402 17.1919 13.3125 11.2284 13.4042 11.3718 9.9464 10.2459 17.3242 9.4510 17.2592 29.1715 20.6168 27.4851 20.6768 29.0170 20.0278 8.5441 9.9981 11.3304 16.1630 11.2303 11.0591 14.7621 18.2159 15.2511 11.0906 18.5961 13.1572
9.0733 19.1521 13.3500 10.4706 8.8836 18.5492 8.9153 17.5405 9.4099 10.4218 9.1152 10.3591 23.2099 19.5080 34.1380 22.1589 10.9846 26.7209 10.3440 11.3908 26.1075 9.0341 11.8628 9.4559 20.5699 13.9855 9.3075 10.7580 10.2362 12.1707 8.3272 15.3350 11.8735 10.5619 11.6325 10.1224 8.9611 9.5838 15.0368 8.8350 15.8333 27.1339 20.0216 25.7043 19.3500 26.8756 18.7050 7.7935 9.2035 10.3437 15.1762 10.4754 10.2285 12.7437 16.1076 13.4210 9.9392 16.1551 11.8996
8.1159 17.3458 11.9957 9.4228 8.2220 16.8316 8.3239 17.1736 8.6784 9.9399 8.6625 9.4295 22.2632 17.4835 30.9349 20.4709 10.5396 24.2647 10.0678 10.8458 24.0324 8.4099 11.6722 9.0229 18.8673 13.2590 8.2923 9.6687 9.0795 10.5546 7.5329 13.7597 10.4904 10.3194 10.8508 9.3758 8.4758 8.6893 14.5821 8.1338 15.2060 26.0723 17.9469 23.0656 18.0730 24.3776 17.5140 7.3927 8.6742 9.8288 13.9425 10.1618 9.7679 11.6776 14.8549 12.4663 8.5249 15.4665 10.7196
7.6126 16.2065 11.6553 8.7998 7.4015 16.8497 7.7043 17.1044 8.4012 8.6481 8.1383 9.5974 20.2320 16.5834 27.7965 19.7673 10.2575 22.5938 9.9318 9.7892 22.4076 8.0089 11.9167 8.1086 17.8894 11.7784 7.4013 9.1678 8.6570 9.9599 7.2552 13.1909 9.8940 9.6831 10.4065 8.9346 7.9748 8.1091 12.5261 7.8218 14.7700 24.1313 18.0083 22.0988 18.2614 23.8153 16.4310 7.2266 8.4346 9.9646 13.0273 8.8892 9.4131 10.3315 13.7805 11.4883 7.9238 13.7140 10.0335
6.5594 14.7381 10.7321 8.1738 7.0166 15.7231 7.0734 17.4217 8.2055 8.3616 7.8834 9.2822 19.3203 14.8573 24.7410 17.8210 9.5973 21.3311 9.6967 9.1239 20.7988 7.2823 12.2466 7.6529 17.0815 10.5705 6.6710 7.9102 7.7222 8.8657 6.1391 12.2516 9.0779 9.1964 9.8698 7.9512 7.4592 7.8256 12.0881 7.6324 14.0663 22.7861 16.7839 20.1915 16.4947 22.3892 15.3301 6.9936 7.9235 9.8770 11.9100 8.3637 9.5690 8.8958 12.5667 10.4015 6.8391 12.4375 9.0049
6.0074 13.5387 10.1428 7.4566 6.6149 14.5067 7.1609 16.5069 7.8466 7.9779 7.8487 9.0802 17.6023 14.0463 22.5795 16.0216 9.6077 20.4125 9.6267 8.8066 18.7490 7.1452 11.9325 7.4683 15.5381 9.7988 6.6213 7.4916 6.8502 8.1416 5.8575 11.2419 8.3022 8.7255 9.7813 7.7937 7.0069 7.4511 11.7153 7.4889 13.4563 21.1433 16.2776 19.2449 15.6957 21.6698 14.9273 7.0119 7.9427 9.6080 11.5225 7.8733 9.4195 8.7540 11.5529 9.4081 6.4825 11.7525 8.1969
5.4802 12.2038 9.2833 7.1075 6.1682 13.0466 6.8212 15.9840 7.4842 7.2137 7.3325 8.3566 17.3217 13.6917 21.6198 15.4833 8.9729 18.8552 8.3849 8.1208 16.4518 6.7898 10.8585 7.0868 14.3120 9.1340 6.3523 6.5610 6.2313 7.6552 5.3038 10.3147 7.5820 8.5756 8.6775 7.2055 6.8087 7.0042 10.4939 7.1186 12.6606 20.7373 15.8018 19.3578 15.6430 20.3229 13.7140 6.5026 7.4167 8.5152 10.8128 7.5648 8.5772 8.6016 10.3147 8.4842 5.9862 10.5523 7.8215
4.7924 10.1511 8.5930 6.4854 5.7371 12.1176 6.0764 13.9098 7.2988 6.4378 7.2544 8.4194 15.6959 12.3221 19.0241 14.1270 8.8837 17.0468 7.9048 7.4285 14.7046 6.3089 9.9248 6.3929 13.0046 8.2857 5.5308 5.9046 5.4533 6.5780 4.6357 8.8842 6.9293 7.4904 8.5132 6.5090 6.3502 6.5364 9.3523 7.1265 11.9287 19.1385 15.5030 18.6968 14.9135 18.4890 12.7733 6.5963 7.1730 8.1586 9.9921 6.8937 7.6998 7.4572 9.0393 7.7963 5.2842 9.7015 6.5541
4.3838 9.7151 8.0263 6.0157 5.4384 11.6298 5.8061 12.5890 6.7041 5.7992 6.8056 8.0961 14.8927 11.5782 17.6325 13.5397 8.7828 15.2661 7.1632 6.5940 13.6491 5.9992 8.6890 5.7283 12.4491 7.5308 5.0968 5.2977 4.9513 6.0688 4.2639 8.4557 6.3329 6.6706 8.3143 6.0611 5.7839 5.9222 8.6412 6.7891 11.5535 17.6295 14.7373 17.8856 14.7409 17.3698 11.8705 6.2605 6.8379 7.0465 9.4587 6.2836 6.9160 6.7330 8.5909 7.3037 4.7258 8.9257 6.4133
4.1554 8.6332 7.8966 5.8290 5.1413 11.0038 5.7179 11.2985 6.5344 5.6877 6.9556 8.3009 14.3851 10.8433 16.2419 12.2996 8.6328 14.2925 7.0288 6.3699 12.6491 5.9948 8.1995 5.5408 11.7042 7.3203 4.7144 4.9503 4.7925 5.9222 4.0445 7.8954 6.1307 6.2634 7.9287 5.8003 5.4928 6.0068 8.5007 6.8379 11.5885 17.0573 14.4574 17.1106 13.8342 16.0077 11.2678 6.3726 6.9143 6.9768 8.8037 6.3353 6.5130 6.3496 7.8547 6.8626 4.2863 8.3760 5.8519
3.8114 8.0337 7.3821 5.2322 5.0725 10.0641 5.5223 10.5396 6.3837 4.9881 6.3207 7.8195 12.9668 9.9541 14.2552 11.3520 8.1275 13.5651 6.5494 5.9041 11.9782 5.8103 7.4761 5.3415 10.9877 6.5483 4.4496 4.3703 4.3910 5.5315 3.4845 7.3315 5.8355 5.7643 7.3913 5.3325 5.3508 5.7908 7.4008 6.3006 10.6633 15.4763 13.4224 15.5754 12.9802 15.5104 10.5407 5.9158 6.8813 6.5438 8.2351 5.8468 5.9111 5.9636 7.1223 6.0435 3.9357 7.8486 5.2706
3.6244 7.6935 6.4956 4.9028 4.6851 9.2653 5.0123 10.0864 5.9493 4.7434 6.1934 7.6907 12.2422 9.2471 13.7800 10.8480 8.3180 12.6094 6.2444 5.4716 11.4818 5.1369 7.1476 4.9853 10.6279 6.2211 4.0596 4.1564 4.0967 5.1677 3.3292 6.7066 5.3144 5.4712 6.5448 4.7471 5.0740 5.4984 6.9714 6.2900 9.9592 14.4137 12.9033 15.4517 12.9044 14.6884 10.2525 6.0354 6.5002 6.2108 7.8698 5.2759 5.5920 5.5352 6.8876 5.9411 3.7166 7.2451 5.0715
3.2045 7.2864 6.2137 4.7176 4.5005 8.7745 4.6364 9.2920 5.5771 4.4004 6.2440 7.8061 11.8699 9.1137 13.0826 10.3172 8.2457 12.2452 5.8397 5.1283 10.8176 4.9662 6.3895 4.5168 9.8409 5.7987 3.7653 3.8474 3.7536 4.7159 2.9982 6.3440 5.1131 5.1204 6.1576 4.5156 4.8338 5.1071 6.3148 6.3400 10.0263 14.0339 13.1152 15.6245 12.8229 13.8010 9.8122 6.1860 6.4320 5.6224 7.3148 5.0120 5.0671 5.1134 6.5063 5.3335 3.4735 6.8701 4.6452
3.1191 6.7153 5.9697 4.6297 4.2912 8.7975 4.5762 8.8803 5.7355 4.1661 5.9470 7.8267 10.7364 8.4786 11.2893 9.2795 8.1335 11.1867 5.6827 4.8070 10.2648 4.6642 6.2690 4.2451 9.7621 5.3987 3.5158 3.5290 3.6149 4.5943 2.9140 6.2146 4.8365 4.7775 6.0779 4.4805 4.6174 5.1713 5.8497 6.2540 9.6537 12.8448 12.6701 14.4372 12.1635 13.0822 9.3262 5.9839 6.1714 5.5413 7.1220 4.7648 4.8414 4.7917 6.0211 5.0234 3.1878 6.4988 4.6006
2.8377 6.4826 5.7691 4.2528 4.1782 8.0689 4.2634 8.1221 5.3398 3.9869 5.4357 7.5320 10.0669 7.7634 10.7355 8.6548 7.6275 10.2596 5.4404 4.3259 9.5570 4.4512 5.7784 4.0317 9.0635 5.3510 3.2722 3.3144 3.4033 4.2790 2.6374 5.7918 4.7109 4.4576 5.8367 4.2190 4.2132 4.8297 5.3837 5.9367 9.1218 11.6455 11.5864 13.1271 10.9602 11.8589 8.6960 5.4273 5.9695 5.2258 6.7886 4.5506 4.4876 4.6332 5.9020 4.8205 3.0194 6.1008 4.2551
2.7471 6.3706 5.5251 4.0154 3.8816 7.5422 4.0013 7.6138 5.0937 3.6723 5.0190 6.5285 9.4515 7.3218 9.8991 8.2726 7.0726 9.5685 5.0225 4.2407 9.3569 4.1809 5.4401 3.9348 9.1205 5.1265 3.1991 3.1727 3.1852 4.2001 2.5125 5.5442 4.3637 4.1844 5.4532 3.8617 4.0593 4.6065 5.0283 5.2744 8.1412 11.1861 10.5139 12.2792 10.5407 11.2503 7.8729 5.1597 5.7028 4.9800 6.4936 4.3671 4.4027 4.4799 5.8384 4.7042 2.8891 5.6387 4.1976
2.7208 6.3283 5.3057 3.8412 3.6696 7.5295 3.6953 7.1410 4.5516 3.4708 4.6659 6.1290 8.4574 6.5807 8.9955 7.5145 6.5154 8.9678 4.5604 3.9724 9.6182 3.7645 4.9668 3.5764 8.8810 4.7973 3.0292 3.0096 3.1167 4.1153 2.4506 5.4279 4.3222 3.8234 5.0952 3.7536 3.6476 4.4026 4.6624 4.9122 7.4692 9.9827 9.4078 10.9983 9.5936 10.4925 7.3842 4.8039 5.2014 4.5692 6.2619 3.9756 3.8908 4.1593 5.6307 4.4465 2.7571 5.6229 4.0371
2.6181 6.0108 4.8862 3.6443 3.4693 7.1861 3.3634 6.2934 4.1319 3.3198 4.2582 5.6457 8.0845 6.2276 8.4587 6.8453 5.8193 8.0645 4.1623 3.7210 9.1810 3.4982 4.4905 3.3137 8.5677 4.4811 2.7492 2.8445 2.9190 3.8780 2.3278 5.0777 3.9591 3.6096 4.7038 3.5727 3.3618 4.0046 4.2654 4.5538 7.1463 9.7482 8.7912 10.2047 8.6081 9.4437 6.5915 4.3563 4.8017 4.1472 5.8019 3.6139 3.5709 3.8436 5.4464 4.3870 2.5462 5.3513 3.8941
2.4985 5.4771 4.5615 3.4641 3.3652 6.5309 3.0540 6.1334 3.7590 2.9868 3.9225 5.2571 7.4246 5.9449 7.8595 6.3987 5.4591 7.6586 3.9058 3.4767 8.4042 3.3694 4.0989 3.1264 8.0874 4.3116 2.6699 2.8465 2.8159 3.7237 2.2234 4.6198 3.7878 3.4571 4.3061 3.2176 3.2547 3.6842 4.0081 4.1886 6.4643 9.0845 8.2316 9.2127 7.9660 8.9179 6.2740 4.0291 4.5860 3.8329 5.7277 3.4121 3.2542 3.7646 5.1372 4.2212 2.4914 5.0329 3.6357
2.5399 5.5912 4.1189 3.2993 3.1532 6.1097 2.9478 5.8172 3.4491 2.7673 3.4657 4.7230 7.1660 5.3247 7.1020 5.8714 4.8334 7.0301 3.4881 3.1144 8.4257 3.0386 3.9167 3.1140 7.8055 4.3387 2.6263 2.7528 2.7916 3.6205 2.2167 4.3627 3.5581 3.2438 3.8712 2.9224 3.0771 3.4731 3.6026 3.6901 5.9982 8.6065 7.3342 8.3723 7.3553 8.2125 5.6583 3.5361 3.9159 3.6861 5.3366 3.2954 3.1886 3.6949 5.2471 4.2674 2.4321 4.5565 3.6508
2.4536 4.9965 4.0447 3.2060 2.9490 5.8770 2.7881 5.3409 3.3443 2.7422 3.1587 4.4732 6.7119 5.1143 6.4674 5.4907 4.3337 6.5129 3.1840 3.0598 7.8880 3.0067 3.5786 2.8866 7.3871 4.0344 2.4250 2.6556 2.7588 3.4190 2.0954 4.0804 3.5629 2.9817 3.7038 2.8561 2.8585 3.3534 3.5192 3.4439 5.7565 8.0417 6.9085 7.4537 6.6236 7.7187 5.1390 3.2011 3.8007 3.3049 5.2030 3.1435 2.8595 3.5642 4.6423 3.9505 2.3338 4.5223 3.1805
2.2978 4.8034 3.8391 3.0647 2.8450 5.6851 2.5038 4.8693 3.0383 2.4522 2.9111 4.0729 6.0636 4.6567 6.0957 4.9888 3.9572 6.0808 3.1116 2.8245 7.3686 2.7819 3.3371 2.8383 7.0565 3.8965 2.3621 2.4336 2.4966 3.3277 1.9770 3.9739 3.3272 2.7712 3.4737 2.7186 2.6004 2.9906 3.1460 3.1743 5.1798 7.3579 6.3542 6.9061 5.9548 6.9629 4.7323 2.9834 3.5215 3.2077 5.0564 3.0177 2.6953 3.4325 4.4176 3.7193 2.2294 4.2350 3.2080
2.1562 4.4164 3.5201 2.9496 2.7575 5.1646 2.3838 4.6120 2.8155 2.2890 2.6450 3.6494 5.5231 4.2561 5.5185 4.7516 3.6408 5.8252 2.7118 2.6313 6.4693 2.5016 3.1008 2.9014 6.5468 3.7502 2.3299 2.4603 2.3394 3.1857 1.9114 3.7639 3.1410 2.6956 3.2461 2.4891 2.4393 2.7813 2.9742 2.8526 4.7059 6.7552 5.6433 6.1119 5.5935 6.9355 4.5392 2.6814 3.1032 2.8857 4.7316 3.0073 2.6430 3.4234 4.0791 3.6745 2.1604 3.8645 3.1534
2.1061 3.8224 3.5406 2.8652 2.5986 4.7502 2.1416 4.2754 2.4844 2.1257 2.3835 3.2015 5.2648 4.0277 5.1457 4.5210 3.3984 5.3468 2.5511 2.5454 5.6071 2.3521 2.8960 2.7211 6.1621 3.6350 2.2356 2.4064 2.3152 3.2118 1.8548 3.5568 3.0873 2.5233 3.0225 2.2554 2.2384 2.5268 2.7960 2.5043 4.3171 6.2968 5.1326 5.4639 5.3179 6.5392 4.2384 2.5061 2.9198 2.7549 4.4428 2.7751 2.5176 3.3285 3.7373 3.5656 2.1425 3.4575 2.9208
2.0730 3.2907 3.6380 2.8826 2.7085 4.4153 2.1113 4.1452 2.4349 2.0016 2.1944 3.0752 4.7640 3.7978 4.6608 4.2005 3.0456 4.9705 2.4676 2.4019 4.9017 2.2870 2.8120 2.6247 5.9756 3.6917 2.2917 2.3962 2.3607 3.2125 1.8130 3.3390 3.2146 2.4958 3.0774 2.1371 2.2458 2.5110 2.5972 2.3807 4.0020 5.9775 4.8210 5.0837 4.8114 5.7569 3.7491 2.2760 2.7741 2.6895 4.2549 2.7455 2.4897 3.3441 3.5087 3.6358 2.1528 3.1506 2.7829
2.1288 3.4410 4.0695 2.7879 2.7779 4.5158 2.0212 4.0534 2.4212 2.0181 2.1362 2.9741 4.7429 3.6723 4.4441 3.8563 2.9509 4.8931 2.3317 2.3490 4.8814 2.2856 2.6855 2.7140 5.9001 3.9357 2.2842 2.4590 2.3777 3.4262 1.8005 3.5231 3.4317 2.4186 3.3412 2.0568 2.1731 2.4840 2.5340 2.2846 4.0083 5.8970 4.6206 4.7696 4.4893 5.6099 3.6532 2.2380 2.7239 2.5892 4.0864 2.8901 2.3963 3.5300 3.7329 3.8156 2.1727 2.9614 2.8646
2.2086 3.4329 4.5497 2.8202 2.9109 4.5060 2.0422 3.7867 2.3503 1.8637 1.9921 2.9086 4.4235 3.4340 4.0314 3.6242 2.8185 4.6839 2.3528 2.2792 4.7539 2.1628 2.6694 2.8406 5.6873 4.5391 2.4102 2.6219 2.3827 3.7640 1.8915 3.7958 3.6137 2.3977 3.6481 2.0437 2.0352 2.3414 2.4330 2.1363 3.8819 5.4323 4.5019 4.4696 4.2861 5.2824 3.5879 2.1085 2.5560 2.5059 4.1465 3.1184 2.3783 3.9983 3.9063 4.0750 2.3629 3.0273 2.9161
2.3620 3.5922 4.9971 2.8013 3.1667 4.8655 2.0955 3.7166 2.2877 1.9227 1.9840 2.8331 4.5361 3.4289 3.9454 3.5352 2.7331 4.3494 2.3340 2.2231 5.0269 2.1415 2.5065 2.9827 6.1324 5.2132 2.4099 2.8493 2.5761 4.0726 1.9539 4.0169 3.9245 2.2890 4.1722 2.0723 2.0694 2.3240 2.4055 2.1421 3.7781 5.4161 4.4158 4.2973 4.1522 5.0425 3.2791 2.1538 2.5377 2.5336 4.1136 3.5002 2.2939 4.3508 4.4179 4.5385 2.5332 3.0009 3.0813
2.5601 3.6759 5.8744 2.9788 3.5313 5.3885 2.1781 3.5480 2.2527 1.8846 1.9938 2.7596 4.3481 3.1658 3.6172 3.3261 2.6555 4.1055 2.3107 2.1430 5.0330 2.1317 2.4496 3.2729 6.4448 5.9089 2.5263 2.8498 2.7768 4.6799 1.9911 4.6015 4.4314 2.3361 4.8438 2.2034 2.0118 2.2410 2.4396 2.1382 3.6993 5.0941 4.1425 4.0927 3.9290 4.7824 3.1352 2.0813 2.4833 2.4996 4.0846 4.0329 2.3036 4.8174 4.7039 4.7277 2.5730 3.0806 3.2318
2.6091 3.7549 5.9624 2.9814 3.6295 5.6996 2.3083 3.4961 2.2476 1.9038 1.9878 2.7577 4.3658 3.1035 3.4027 3.3801 2.8050 4.0776 2.3038 2.2293 5.4061 2.1280 2.3505 3.2952 6.8311 6.4821 2.4620 3.1101 2.8425 4.7518 2.1139 4.5851 4.5944 2.3632 5.1091 2.3674 2.0376 2.2196 2.5193 2.1167 3.6319 5.1073 4.2186 4.0016 4.1677 4.8859 3.2039 2.2370 2.4772 2.4101 4.3566 4.5048 2.1918 4.9743 5.1589 5.0377 2.6605 3.3570 3.3323
2.4758 3.8301 5.6260 2.6963 3.3670 6.0555 2.3666 3.3714 2.2994 2.0124 2.0369 2.9810 4.2483 3.0629 3.2770 3.1229 2.9681 3.9469 2.3662 2.3297 5.9411 2.1825 2.2575 3.3493 7.4535 6.5061 2.4478 2.9979 2.6842 4.4448 2.0109 4.5549 4.0915 2.2180 5.1228 2.6005 2.0193 2.3562 2.6027 2.2587 3.7310 4.9230 4.3521 4.0315 4.0852 4.6071 3.2047 2.3258 2.5644 2.3779 4.5198 4.6934 2.1172 4.9326 5.4208 4.8574 2.6459 3.6856 3.1695
2.2625 3.5968 5.2513 2.6127 3.2187 6.5537 2.4850 3.2361 2.1792 2.1476 2.2207 3.2303 4.0659 3.2648 3.1899 3.2415 3.1610 3.8941 2.4290 2.5735 6.3462 2.2211 2.2535 3.1403 8.4184 6.2980 2.3022 2.7720 2.4904 3.9570 1.8472 4.3435 3.8248 2.0584 5.2193 2.9084 2.0147 2.2899 2.7579 2.5026 3.7650 5.0444 4.9439 4.4718 4.5326 4.3663 3.1243 2.6527 2.5863 2.4557 5.1508 4.7911 2.0820 4.4805 5.4959 4.5553 2.5014 4.1409 2.8689
2.2195 3.7342 4.9599 2.4700 2.9226 7.7633 2.6662 3.2731 2.3059 2.5323 2.7345 4.2163 4.2428 3.5624 3.1606 3.3700 4.0436 4.1862 2.6277 3.3719 7.6569 2.4946 2.4610 3.0079 9.5957 6.1598 2.1466 2.6052 2.4402 3.7265 1.7966 4.4865 3.3953 1.9543 5.2389 3.7950 2.0566 2.5778 3.3643 3.3120 4.1976 5.2219 6.2261 5.2479 5.3763 4.7246 3.5235 3.5098 2.9263 2.6917 6.1050 4.9746 2.0023 4.0454 5.8561 4.3447 2.3618 5.4105 2.8352
2.0345 3.7014 4.7527 2.2816 2.7514 8.9248 3.0021 3.1941 2.4757 3.3125 3.7071 5.6903 4.5442 4.2660 3.3310 3.7065 5.2107 4.4050 2.9342 4.9769 8.5500 3.0759 2.7543 3.0126 10.5894 5.7469 1.9932 2.4852 2.2600 3.2921 1.7132 4.7171 3.0732 1.8091 5.2897 4.8920 2.1808 2.9783 4.4306 4.5655 4.9802 5.7994 8.4222 6.7953 6.6242 4.9640 3.7886 5.0291 3.6213 2.9927 8.1982 5.0623 1.9672 3.6413 5.8271 3.9491 2.2320 7.1068 2.5759
1.9605 3.4041 4.2956 2.2488 2.5350 9.6550 3.3660 3.3531 2.5452 4.3989 4.9296 7.7123 5.0172 4.7881 3.4414 3.9150 6.9332 4.9875 3.1389 6.8824 9.0729 3.6490 3.0951 2.9009 10.9093 5.3522 1.8677 2.3022 2.2098 2.9508 1.5400 4.6011 2.7618 1.7677 4.9970 6.3292 2.2401 3.5032 5.6906 6.3434 5.9517 6.3427 10.8287 8.2467 7.9537 5.2293 4.2646 7.0443 4.7647 3.2219 9.7582 4.9223 1.9629 3.2680 5.5393 3.6565 2.1862 8.8113 2.2806
1.8446 2.9295 3.8741 2.2741 2.5438 9.4693 3.3500 3.4436 2.5834 5.0137 5.4488 8.4173 5.2175 4.7500 3.2692 3.8594 7.5452 5.4331 3.3399 8.4334 8.5447 3.9453 3.1901 2.9152 10.2981 4.5703 1.8232 2.1541 2.1593 2.6986 1.4599 4.1045 2.7035 1.8185 4.5695 6.9173 2.4239 3.6918 6.6154 7.0121 6.3091 6.5703 11.3081 8.4025 8.1445 5.3699 4.5421 7.9542 5.5254 3.4188 10.9244 4.4962 1.9367 3.0218 4.7666 3.1960 2.1052 9.7716 2.0336
1.6375 2.4615 3.3738 2.1543 2.3740 8.3592 3.3642 3.3753 2.4679 5.6227 5.6035 8.3063 5.1600 4.2637 3.0458 3.6745 7.4523 5.1966 3.1485 8.7910 7.5120 3.9183 3.0476 2.7397 9.1200 3.9043 1.6912 2.0006 1.9320 2.3231 1.3817 3.5602 2.4654 1.7549 3.8963 6.8951 2.2814 4.1162 7.0351 7.1581 5.9832 6.1110 10.3925 7.9003 7.8034 4.9393 4.3125 8.0182 5.6847 3.1486 10.6648 3.7967 1.8836 2.7923 3.9285 2.8483 1.9319 9.4370 1.8060
1.4366 2.0948 2.8111 2.0262 2.1650 6.5490 2.8333 3.0405 2.2388 5.0430 4.6367 6.6137 4.6329 3.6540 2.8094 3.2075 6.0793 4.7428 2.7005 7.6459 5.9995 3.5379 2.6466 2.4882 7.5583 3.1161 1.5796 1.7029 1.7279 2.0127 1.1742 2.9197 2.2802 1.5772 3.0803 5.5370 2.0228 3.6086 6.3730 5.7927 5.0674 5.3932 8.3143 6.4325 6.2866 4.4057 3.7601 6.4954 5.0180 2.7447 9.1305 3.1829 1.7446 2.5249 3.1019 2.3704 1.7604 7.8072 1.5379
1.2292 1.8074 2.3634 1.7866 1.9443 5.2187 2.5698 2.8200 1.9922 4.3536 3.6939 5.0801 3.9661 3.0495 2.5375 2.8889 4.8192 4.0242 2.3344 6.3765 4.7766 3.2486 2.2695 2.2773 6.6061 2.5693 1.4060 1.4584 1.4580 1.6967 1.0086 2.3678 1.9712 1.4965 2.6545 4.5660 1.7962 3.2205 5.4723 4.4496 4.1314 4.5127 6.3151 5.0316 5.0474 3.7717 3.1026 5.1298 4.3875 2.4070 7.7978 2.7129 1.5790 2.1735 2.6288 2.0577 1.4766 6.2216 1.3619
1.1153 1.5200 1.9645 1.6511 1.7581 4.1659 2.3474 2.5044 1.8184 3.7943 3.0193 3.9655 3.5049 2.5462 2.2494 2.5627 3.7749 3.6457 2.0245 5.0762 3.7404 2.7035 1.9120 2.0902 5.6493 2.2171 1.3470 1.3080 1.3164 1.5323 0.9161 1.9010 1.7964 1.3685 2.1427 3.7278 1.5886 2.9896 4.5747 3.5502 3.4377 3.9318 4.9132 4.0684 4.0872 3.2854 2.7398 4.0116 3.5398 2.0728 6.4579 2.3645 1.5149 2.0590 2.1228 1.8102 1.3600 4.9381 1.2095
1.0263 1.4100 1.7432 1.5482 1.6025 3.3273 2.0490 2.2925 1.5685 3.1716 2.3438 3.0054 2.9346 2.2404 2.0570 2.3208 2.8859 3.1976 1.7441 3.9334 3.1071 2.2166 1.7018 1.9173 4.7506 1.9157 1.2213 1.1681 1.2440 1.4178 0.8175 1.6305 1.6760 1.2060 1.8291 2.9884 1.3992 2.5393 3.8155 2.7025 2.7544 3.3379 3.8410 3.1987 3.3021 2.9519 2.3410 2.9333 2.8182 1.7780 5.3338 2.0102 1.3936 1.8260 1.8606 1.6523 1.1956 3.9137 1.1349
0.9340 1.2258 1.4933 1.4202 1.4636 2.8776 1.7536 2.1639 1.4543 2.4877 1.8396 2.3479 2.6708 1.9933 1.8616 2.1326 2.3825 2.9361 1.5601 3.0147 2.6124 1.9247 1.5335 1.7328 4.3249 1.6966 1.1330 1.1243 1.1373 1.2402 0.7466 1.4085 1.4832 1.1224 1.5955 2.3674 1.2948 2.1357 2.9809 2.0683 2.4102 3.0527 3.0815 2.6908 2.9262 2.7112 2.0686 2.2873 2.3284 1.6165 4.4149 1.7999 1.3313 1.7146 1.5657 1.5609 1.1213 3.0338 1.0247
0.8862 1.0968 1.3455 1.3740 1.3368 2.4052 1.5079 1.9487 1.3236 2.0553 1.4502 1.8917 2.3914 1.7338 1.6439 1.9919 1.8844 2.7681 1.4355 2.3969 2.2285 1.6598 1.4534 1.6443 3.8977 1.5143 1.1421 1.0306 1.0747 1.1879 0.7195 1.2214 1.4152 1.0307 1.3596 1.8726 1.1779 1.8620 2.4427 1.6124 2.1259 2.7485 2.4780 2.1264 2.4304 2.4748 1.8316 1.7607 1.9669 1.5354 3.8610 1.5679 1.3595 1.6305 1.3845 1.4466 1.0788 2.4746 0.9662
0.8529 1.0403 1.2541 1.2810 1.2964 2.1376 1.3138 1.9073 1.2428 1.6404 1.2052 1.4992 2.1022 1.5544 1.5746 1.8961 1.6383 2.6418 1.2971 1.9283 1.9784 1.3869 1.3012 1.6093 3.5943 1.4289 1.0743 0.9836 0.9963 1.1033 0.6840 1.1251 1.3297 0.9667 1.2707 1.5211 1.1034 1.6290 1.9760 1.2425 1.8648 2.4844 2.0740 1.8778 2.2321 2.3044 1.7099 1.4742 1.5603 1.4528 3.3555 1.4176 1.2772 1.5321 1.3239 1.3341 0.9897 2.0690 0.8970
0.8342 0.9743 1.1924 1.2708 1.2517 1.9554 1.1864 1.7952 1.1469 1.4738 1.0219 1.3131 1.9725 1.4803 1.5062 1.8854 1.4095 2.5890 1.2265 1.6096 1.7725 1.2435 1.2245 1.5981 3.4546 1.2764 1.0518 0.9329 0.9850 1.0686 0.6477 1.0491 1.2770 0.9285 1.1844 1.3071 1.0197 1.4584 1.7223 1.0950 1.7338 2.3470 1.8451 1.6057 2.0253 2.1115 1.6143 1.2056 1.3575 1.3206 3.1569 1.3240 1.2685 1.4859 1.1892 1.2886 0.9545 1.7610 0.8548
0.7791 0.9044 1.0830 1.2067 1.2142 1.8140 1.0905 1.6979 1.0241 1.2343 0.8770 1.1343 1.7579 1.3808 1.3821 1.8009 1.2685 2.5751 1.1639 1.4627 1.6432 1.1358 1.1520 1.4781 3.2680 1.2016 0.9831 0.9240 0.9269 1.0043 0.6267 0.9529 1.2267 0.8841 1.0774 1.1463 0.9631 1.3072 1.5400 0.9217 1.5240 2.1594 1.6222 1.4161 1.9080 2.0178 1.5355 1.0446 1.2550 1.2816 3.0230 1.2336 1.1987 1.4078 1.0869 1.2304 0.9382 1.6441 0.8014
0.7499 0.8671 1.0731 1.1892 1.1790 1.7211 0.9980 1.6843 1.0264 1.1310 0.8177 1.0251 1.6344 1.2542 1.3070 1.8128 1.1993 2.5401 1.1688 1.2174 1.5135 1.0357 1.1455 1.5062 3.2321 1.1889 0.9697 0.8617 0.8970 0.9712 0.5982 0.9076 1.2256 0.8562 1.0419 1.0579 0.9461 1.2249 1.3310 0.8361 1.4341 2.0028 1.4577 1.3338 1.8873 1.9535 1.5516 0.9532 1.1029 1.2534 2.7816 1.1658 1.2441 1.3594 1.0745 1.1792 0.8852 1.4179 0.7804
0.7587 0.8259 1.0011 1.1584 1.1371 1.6609 0.9406 1.5930 0.9334 0.9881 0.7251 0.9630 1.5539 1.2226 1.2665 1.7864 1.0995 2.5905 1.0472 1.0794 1.4719 0.9576 1.0923 1.4071 3.0478 1.1209 0.9675 0.8635 0.8964 0.9352 0.5858 0.8595 1.1578 0.8151 1.0177 0.9607 0.8875 1.0989 1.1963 0.7461 1.3884 1.9451 1.4021 1.2484 1.7964 1.7935 1.4345 0.8580 1.0196 1.1598 2.5572 1.1166 1.1972 1.3491 1.0313 1.1467 0.9095 1.3211 0.7577
0.7659 0.7936 0.9773 1.0970 1.0950 1.6161 0.8732 1.6135 0.9281 0.9020 0.6837 0.8950 1.5134 1.1713 1.2036 1.7437 1.0653 2.7199 1.0411 1.0320 1.3738 0.9140 1.0523 1.4480 3.0885 1.0802 0.9543 0.8342 0.8625 0.9393 0.5676 0.8325 1.1160 0.7841 0.9510 0.9032 0.8873 1.0015 1.1380 0.6985 1.3543 1.8931 1.3563 1.1575 1.7007 1.6964 1.4757 0.8139 0.9756 1.1675 2.5030 1.0811 1.2309 1.3288 1.0168 1.1074 0.8866 1.2259 0.7401
0.7190 0.7703 0.9452 1.0811 1.0319 1.4793 0.8075 1.5203 0.8732 0.8283 0.6389 0.8400 1.4359 1.1143 1.1514 1.6735 1.0011 2.6714 0.9983 0.9422 1.3006 0.8677 1.0481 1.3495 2.7648 1.0359 0.8888 0.8215 0.8351 0.8727 0.5479 0.8172 1.0943 0.7545 0.8915 0.7954 0.8222 0.9513 1.0120 0.6441 1.2805 1.8033 1.2728 1.0548 1.5611 1.6650 1.4369 0.7602 0.9101 1.1115 2.3339 1.0465 1.1726 1.2278 0.9329 1.0745 0.8308 1.1030 0.7276
0.6961 0.7370 0.9127 1.0919 1.0585 1.4634 0.7695 1.4572 0.8290 0.7594 0.6105 0.7553 1.3756 1.0252 1.1259 1.7601 0.9656 2.8207 1.0238 0.9042 1.2706 0.8574 1.0328 1.4145 2.7762 0.9967 0.9256 0.7762 0.8141 0.8675 0.5349 0.7856 1.0833 0.7773 0.8583 0.7684 0.8122 0.8868 0.9370 0.6078 1.1916 1.6738 1.1369 0.9899 1.5441 1.5433 1.4490 0.7155 0.8899 1.1217 2.3764 0.9541 1.2736 1.2320 0.8996 1.0435 0.8147 1.0951 0.7014
0.6985 0.7042 0.9017 1.0630 1.0284 1.4257 0.7463 1.4684 0.8273 0.7319 0.5753 0.7526 1.3242 1.0586 1.0967 1.7873 0.9186 2.9509 0.9733 0.8605 1.2233 0.7867 1.0187 1.2351 2.7469 0.9710 0.8734 0.7703 0.8099 0.8476 0.5299 0.7494 1.0803 0.7216 0.8257 0.7290 0.7971 0.8617 0.8908 0.5897 1.1872 1.6972 1.1878 0.9725 1.5220 1.5020 1.4205 0.6839 0.8148 1.0278 2.2274 0.9714 1.2259 1.1727 0.8810 1.0105 0.7907 1.0177 0.6697
0.7036 0.7076 0.8860 1.0552 0.9683 1.3607 0.6862 1.4042 0.7843 0.7034 0.5723 0.7091 1.3128 0.9984 1.0728 1.8008 0.9257 3.1585 1.0380 0.8058 1.1903 0.7985 1.0082 1.2366 2.6136 0.9251 0.9017 0.7805 0.8168 0.8571 0.5296 0.7381 1.0901 0.7040 0.8139 0.6693 0.7412 0.8093 0.8645 0.5626 1.1549 1.6383 1.0750 0.8986 1.4903 1.4477 1.5418 0.6624 0.8208 1.0323 2.2205 0.9329 1.2515 1.1662 0.8415 0.9569 0.8240 0.9815 0.6690
0.6916 0.6934 0.8682 1.0015 0.9633 1.3359 0.6609 1.3352 0.7702 0.6642 0.5412 0.7097 1.2672 0.9464 1.0252 1.8146 0.9161 3.2850 1.0356 0.7856 1.1772 0.7508 1.0222 1.2415 2.7539 0.8986 0.8947 0.7900 0.7805 0.8414 0.5191 0.7360 1.0317 0.7056 0.7881 0.6583 0.7396 0.7777 0.7951 0.5509 1.1345 1.5840 1.0735 0.8705 1.4646 1.4053 1.5977 0.6536 0.7704 1.0483 2.1198 0.9171 1.2797 1.1492 0.8302 0.9935 0.8236 0.9428 0.6937
0.7197 0.6736 0.8719 0.9701 0.8860 1.3072 0.6634 1.2839 0.7344 0.6487 0.5290 0.6746 1.2220 0.9712 1.0476 1.9111 0.9275 3.4584 1.0443 0.7312 1.0871 0.7324 0.9857 1.2089 2.6149 0.9143 0.8960 0.7719 0.8001 0.8582 0.5148 0.7102 1.0159 0.6761 0.7591 0.6403 0.7273 0.7764 0.7720 0.5293 1.0924 1.5600 1.0343 0.8552 1.5054 1.3355 1.6127 0.6187 0.7774 1.0501 2.1771 0.8628 1.3292 1.1423 0.8301 0.9643 0.7886 0.9171 0.6608
0.6731 0.6604 0.8369 0.9702 0.9450 1.2400 0.6463 1.3227 0.7082 0.6200 0.4905 0.6521 1.1562 0.9222 1.0098 1.9773 0.9061 3.6448 1.0370 0.7352 1.0720 0.7304 1.0112 1.2531 2.5680 0.8985 0.9076 0.7680 0.7563 0.8050 0.4979 0.7022 0.9967 0.7015 0.7381 0.6077 0.7098 0.7556 0.7379 0.5052 1.0365 1.4663 1.0041 0.8208 1.5287 1.3360 1.6467 0.5945 0.7530 1.0391 2.0137 0.8870 1.4018 1.1382 0.7882 0.9490 0.7994 0.8731 0.6598
0.6848 0.6349 0.7957 0.9936 0.8803 1.2264 0.6090 1.3159 0.6889 0.6170 0.4813 0.6049 1.1874 0.9193 1.0079 2.0494 0.9128 3.8379 1.0879 0.7116 1.0487 0.7446 1.0172 1.2495 2.5460 0.8582 0.8467 0.7749 0.7825 0.7924 0.5070 0.6654 0.9892 0.6772 0.6996 0.6029 0.6823 0.7155 0.7165 0.4846 1.0258 1.5343 0.9709 0.8024 1.5432 1.3133 1.6855 0.5801 0.7347 1.0860 2.1087 0.8394 1.3829 1.0794 0.7752 0.9226 0.7850 0.8764 0.6216
0.7134 0.6052 0.7869 0.9734 0.8527 1.1970 0.6102 1.2720 0.6707 0.5689 0.4797 0.5960 1.1301 0.8873 1.0040 2.1763 0.9317 4.2128 1.1056 0.6937 1.0161 0.6906 1.0283 1.2066 2.4652 0.8595 0.8528 0.7738 0.7744 0.7789 0.5027 0.6478 0.9881 0.6654 0.6925 0.5699 0.6701 0.6966 0.6854 0.4778 0.9752 1.4260 0.9485 0.7860 1.5863 1.2792 1.7735 0.5773 0.7198 1.0310 2.0352 0.8323 1.4381 1.0878 0.7682 0.9299 0.7853 0.8668 0.6253
0.6838 0.5977 0.7980 0.9451 0.8333 1.1977 0.5817 1.1938 0.6439 0.5641 0.4581 0.5650 1.0959 0.8488 0.9663 2.0947 0.9323 4.2416 1.1113 0.7010 0.9762 0.6796 1.0384 1.1521 2.3531 0.8469 0.8530 0.7336 0.7505 0.7893 0.4842 0.6386 0.9620 0.6804 0.6811 0.5713 0.6376 0.6702 0.6698 0.4641 0.9400 1.3871 0.8967 0.7159 1.5086 1.2193 1.8277 0.5563 0.7269 1.0246 2.0242 0.8138 1.4049 1.0545 0.7512 0.9014 0.7676 0.8311 0.6133
0.6935 0.5943 0.7798 0.8949 0.8382 1.1690 0.6026 1.1983 0.6447 0.5718 0.4621 0.5706 1.0574 0.8508 0.9546 2.0638 0.9312 4.0910 1.0913 0.6607 0.9693 0.6534 0.9892 1.1341 2.4070 0.8532 0.8084 0.7653 0.7608 0.7819 0.4930 0.6286 0.9532 0.6860 0.6786 0.5522 0.6660 0.6825 0.6578 0.4706 0.9100 1.3603 0.9021 0.7258 1.4992 1.2230 1.8368 0.5587 0.6828 1.0000 2.0819 0.8119 1.3697 1.0539 0.7171 0.9270 0.7515 0.8217 0.6193
0.6697 0.5849 0.7517 0.8908 0.8594 1.1363 0.5767 1.2101 0.6129 0.5123 0.4282 0.5572 1.0245 0.8289 0.9626 2.1558 0.9376 4.1658 1.0884 0.6314 0.9634 0.6531 0.9635 1.1249 2.2867 0.7687 0.8253 0.7326 0.7318 0.7454 0.4710 0.6039 0.9724 0.6821 0.6581 0.5406 0.6301 0.6344 0.6251 0.4390 0.9036 1.3350 0.8762 0.6948 1.5187 1.1633 1.8341 0.5394 0.6868 1.0071 1.9809 0.7650 1.3792 0.9672 0.7091 0.8833 0.7235 0.8070 0.6002
0.6620 0.5674 0.7283 0.8581 0.8186 1.1130 0.5343 1.1625 0.6057 0.5199 0.4198 0.5405 0.9960 0.8105 0.9532 2.2017 0.9007 4.4760 1.0528 0.6356 0.9620 0.6444 1.0066 1.0682 2.3168 0.7806 0.8106 0.7558 0.7169 0.7262 0.4772 0.5950 0.9175 0.6834 0.6204 0.5261 0.6353 0.6100 0.6242 0.4334 0.8703 1.2753 0.8416 0.6583 1.5192 1.1686 1.8906 0.5075 0.6518 0.9729 1.9400 0.7823 1.3952 0.9573 0.6982 0.8891 0.7306 0.7868 0.5974
0.6898 0.5693 0.7374 0.8739 0.8419 1.1159 0.5375 1.1566 0.5926 0.5069 0.4187 0.4987 0.9974 0.8062 0.9412 2.2561 0.9035 4.4865 1.0587 0.6140 0.9456 0.6268 1.0144 1.1306 2.3432 0.7522 0.8179 0.7369 0.7125 0.7366 0.4792 0.5899 0.9461 0.6753 0.6348 0.5272 0.6359 0.6235 0.5857 0.4184 0.8298 1.2696 0.8247 0.6667 1.5077 1.1252 1.9084 0.5053 0.6500 0.9885 1.9704 0.7490 1.4443 0.9628 0.6817 0.8701 0.7097 0.7753 0.5835
0.6770 0.5430 0.7593 0.8524 0.8364 1.0944 0.5269 1.0877 0.5887 0.5188 0.4168 0.5025 0.9912 0.7966 0.9337 2.2285 0.9141 4.5875 1.0730 0.6037 0.9098 0.6256 0.9179 1.1644 2.2940 0.7554 0.8058 0.7146 0.7295 0.7537 0.4472 0.5873 0.9622 0.6712 0.6058 0.5297 0.6021 0.6039 0.5991 0.4226 0.8416 1.2491 0.8144 0.6616 1.4860 1.0823 2.0167 0.5072 0.6295 0.9542 1.9557 0.7434 1.3706 0.9537 0.6510 0.8549 0.7057 0.7484 0.5709
0.6996 0.5307 0.7004 0.8274 0.7752 1.0788 0.5132 1.0559 0.5849 0.4894 0.3953 0.5017 0.9483 0.7795 0.8993 2.1505 0.8864 4.4602 1.0273 0.5947 0.8954 0.6073 0.8970 1.0770 2.1499 0.7301 0.7849 0.7213 0.7135 0.7265 0.4388 0.5851 0.9013 0.6609 0.5958 0.4949 0.5931 0.5958 0.5746 0.4006 0.8350 1.2288 0.8042 0.6304 1.4449 1.0935 1.9736 0.4842 0.6066 0.9322 1.8325 0.7307 1.3530 0.9345 0.6356 0.8084 0.6991 0.7405 0.5560
0.7173 0.5290 0.7195 0.8170 0.7887 1.0399 0.5111 1.0700 0.5580 0.4598 0.3840 0.4679 0.8874 0.7608 0.9089 2.2405 0.8462 4.5165 1.0145 0.5863 0.8657 0.6002 0.9299 1.0469 2.2212 0.7213 0.7793 0.7639 0.7191 0.7183 0.4512 0.5641 0.9239 0.6584 0.5849 0.4897 0.5929 0.5754 0.5637 0.3777 0.7764 1.1646 0.7915 0.6176 1.4552 1.0408 1.8286 0.4894 0.6190 0.9724 1.8210 0.7117 1.3970 0.8881 0.6434 0.8331 0.7179 0.7326 0.5455
0.7329 0.5104 0.6955 0.8193 0.7603 1.0303 0.4932 1.0563 0.5463 0.4598 0.3695 0.4511 0.9393 0.7361 0.8496 1.9801 0.8255 4.0424 0.9905 0.5724 0.8314 0.5975 0.8584 1.1001 2.1637 0.6892 0.7619 0.7733 0.6965 0.7277 0.4612 0.5511 0.9139 0.6545 0.5797 0.4784 0.5530 0.5669 0.5533 0.3711 0.7857 1.1690 0.7580 0.5889 1.3244 0.9715 1.7651 0.4616 0.6126 0.9272 1.8580 0.6665 1.3088 0.9026 0.6127 0.8193 0.6827 0.7230 0.5455
0.7242 0.5043 0.7204 0.8256 0.8076 0.9866 0.5102 1.0495 0.5634 0.4485 0.3831 0.4623 0.8796 0.7224 0.8473 2.0223 0.8130 4.1106 0.9778 0.5590 0.8230 0.5820 0.8661 1.0325 2.1124 0.6935 0.7607 0.7449 0.7314 0.7471 0.4656 0.5318 0.9692 0.6855 0.5992 0.4647 0.5905 0.5683 0.5430 0.3800 0.7502 1.1402 0.7417 0.5886 1.3038 0.9428 1.8263 0.4583 0.5477 0.8942 1.7967 0.6915 1.3413 0.8533 0.6038 0.8230 0.6644 0.6937 0.5713
0.7491 0.5117 0.6915 0.8125 0.7540 0.9771 0.4976 1.0277 0.5209 0.4454 0.3576 0.4448 0.8686 0.7148 0.7909 1.9061 0.8065 3.9405 0.9316 0.5346 0.8409 0.5563 0.8402 0.9452 2.1374 0.7051 0.7219 0.7468 0.7260 0.7355 0.4545 0.5282 0.9131 0.6774 0.5777 0.4593 0.5496 0.5374 0.5143 0.3730 0.7434 1.1296 0.7127 0.5527 1.2841 0.9462 1.7562 0.4403 0.5561 0.8496 1.8344 0.6819 1.2451 0.8252 0.6203 0.8065 0.6513 0.7076 0.5652
0.7581 0.4922 0.7062 0.7867 0.7037 0.9819 0.4859 0.9930 0.5245 0.4323 0.3491 0.4422 0.8430 0.6917 0.7782 1.8908 0.8035 3.9838 0.9218 0.5448 0.8055 0.5568 0.8159 0.9784 2.0990 0.7035 0.7262 0.7486 0.6923 0.7334 0.4459 0.5406 0.8857 0.6505 0.5691 0.4465 0.5467 0.5047 0.5103 0.3649 0.7382 1.0636 0.7142 0.5410 1.2769 0.9297 1.7704 0.4476 0.5588 0.8377 1.8374 0.6685 1.2428 0.8452 0.6019 0.7995 0.6413 0.6946 0.5270
0.7856 0.4747 0.6873 0.8244 0.7426 0.9811 0.4759 0.9757 0.5110 0.4254 0.3408 0.4145 0.8355 0.6675 0.7571 1.7974 0.7154 3.7429 0.8657 0.5180 0.7961 0.5318 0.7765 1.0079 2.0495 0.6777 0.7228 0.7690 0.7147 0.7218 0.4579 0.5228 0.9247 0.6645 0.5563 0.4482 0.5541 0.5170 0.5048 0.3418 0.7226 1.0530 0.6873 0.5379 1.1870 0.8792 1.5702 0.4279 0.5355 0.8129 1.7008 0.6508 1.2144 0.8702 0.5664 0.7863 0.6765 0.6614 0.5254
0.7775 0.4825 0.6593 0.7886 0.7518 0.9515 0.4623 0.9731 0.4998 0.4129 0.3368 0.4039 0.8188 0.6514 0.7243 1.6911 0.7391 3.5043 0.8507 0.5191 0.7807 0.5301 0.7585 1.0090 1.9939 0.6751 0.6950 0.7854 0.6871 0.7165 0.4731 0.4994 0.9236 0.6491 0.5395 0.4466 0.5238 0.4985 0.4946 0.3216 0.7037 1.0366 0.6458 0.5199 1.1756 0.8640 1.5531 0.4324 0.5340 0.8027 1.7729 0.6333 1.1736 0.8420 0.5890 0.8035 0.6686 0.6794 0.5282
0.7939 0.4667 0.6514 0.7993 0.7495 0.9580 0.4485 0.9477 0.4821 0.4113 0.3387 0.3968 0.7835 0.6293 0.6913 1.5525 0.7322 3.1683 0.8119 0.4905 0.7459 0.5193 0.7376 1.0530 2.0662 0.6255 0.6833 0.7825 0.6931 0.7015 0.4454 0.4991 0.9414 0.6307 0.5421 0.4392 0.4938 0.4926 0.4721 0.3311 0.6807 0.9764 0.6427 0.5056 1.0782 0.8726 1.5019 0.4282 0.5158 0.7875 1.7478 0.6157 1.1155 0.8452 0.5727 0.7857 0.6634 0.6534 0.5227
0.8074 0.4452 0.6394 0.7989 0.7059 0.9323 0.4322 0.9262 0.4597 0.4103 0.3315 0.3825 0.7606 0.6069 0.6812 1.6209 0.6625 3.1947 0.7703 0.4997 0.7457 0.5146 0.7445 1.0419 2.0557 0.6312 0.6846 0.7918 0.6779 0.6816 0.4542 0.4837 0.8940 0.6386 0.5181 0.4243 0.4907 0.4683 0.4888 0.3265 0.6544 0.9437 0.6228 0.4965 1.1241 0.8461 1.3660 0.4181 0.4953 0.7935 1.7872 0.6351 1.1305 0.8437 0.5520 0.7700 0.6610 0.6557 0.5103
0.8090 0.4594 0.6272 0.7703 0.7018 0.9142 0.4422 0.8938 0.4374 0.3988 0.3217 0.3662 0.7269 0.5983 0.6702 1.5268 0.6775 3.1124 0.7788 0.4796 0.7527 0.5034 0.7059 1.0479 2.0141 0.5922 0.6913 0.8045 0.6492 0.6757 0.4437 0.4846 0.8672 0.6063 0.4962 0.4177 0.4826 0.4659 0.4566 0.3209 0.6179 0.9072 0.6164 0.4915 1.0918 0.8289 1.2872 0.4187 0.5127 0.8317 1.7567 0.6013 1.1623 0.8240 0.5520 0.7586 0.6597 0.6357 0.4979
0.8157 0.4343 0.6032 0.7195 0.6894 0.8986 0.4076 0.8915 0.4348 0.3896 0.3145 0.3606 0.6959 0.5800 0.6471 1.4089 0.6096 2.7964 0.7389 0.4715 0.7230 0.5049 0.6761 1.0457 1.9938 0.6115 0.6571 0.8009 0.6298 0.6630 0.4365 0.4624 0.8429 0.5760 0.4837 0.4069 0.4659 0.4526 0.4476 0.3206 0.5966 0.8758 0.6024 0.4996 0.9975 0.8146 1.2762 0.3861 0.4919 0.7572 1.6964 0.5948 1.0474 0.8385 0.5374 0.7303 0.6510 0.6122 0.4866
0.8334 0.4258 0.5811 0.7326 0.6501 0.8888 0.3986 0.8676 0.4460 0.3812 0.3078 0.3620 0.6941 0.5894 0.6276 1.3534 0.6021 2.6923 0.7164 0.4912 0.7143 0.4863 0.6511 0.9730 2.0303 0.6171 0.6325 0.8273 0.6230 0.6557 0.4290 0.4593 0.8112 0.5604 0.4688 0.3974 0.4687 0.4437 0.4620 0.3064 0.6036 0.8896 0.6097 0.4719 0.9454 0.7559 1.2234 0.4022 0.4755 0.7449 1.7141 0.6026 1.0067 0.8111 0.5436 0.7550 0.6532 0.6122 0.4859
0.8865 0.4295 0.5689 0.7370 0.6750 0.8763 0.4109 0.8354 0.4309 0.3731 0.3027 0.3410 0.6743 0.5319 0.5746 1.2494 0.5774 2.3829 0.6794 0.4679 0.6901 0.4813 0.6357 0.9615 1.9338 0.6103 0.6117 0.8460 0.6169 0.6581 0.4490 0.4560 0.8062 0.5718 0.4689 0.4073 0.4595 0.4446 0.4491 0.2956 0.5819 0.8459 0.5404 0.4458 0.9167 0.7908 1.1655 0.3845 0.4690 0.6846 1.6326 0.5976 0.9262 0.8152 0.5229 0.7386 0.6706 0.6056 0.4857
0.9058 0.4106 0.5480 0.7401 0.6901 0.8651 0.3875 0.8404 0.4168 0.3657 0.2955 0.3469 0.6756 0.5281 0.5606 1.1851 0.5501 2.2810 0.6630 0.4694 0.6960 0.4582 0.6056 0.9288 1.9965 0.6017 0.6363 0.8125 0.6125 0.6449 0.4365 0.4443 0.7894 0.5626 0.4646 0.3913 0.4712 0.4351 0.4433 0.2933 0.5852 0.8398 0.5564 0.4560 0.8882 0.7578 1.0494 0.3728 0.4612 0.6773 1.6250 0.5703 0.9044 0.8266 0.5032 0.7237 0.6665 0.5876 0.4755
0.9182 0.4132 0.5613 0.7259 0.6716 0.8631 0.3873 0.8484 0.4135 0.3602 0.2891 0.3368 0.6543 0.5237 0.5589 1.1915 0.5217 2.3418 0.6312 0.4579 0.6859 0.4733 0.5971 0.9658 1.9075 0.5900 0.6165 0.8732 0.6194 0.6588 0.4499 0.4401 0.7840 0.5696 0.4708 0.3755 0.4547 0.4284 0.4286 0.2929 0.5776 0.8294 0.5468 0.4347 0.8706 0.7252 1.0488 0.3636 0.4548 0.6990 1.5851 0.5627 0.9599 0.7810 0.4985 0.7525 0.6539 0.5619 0.4843
0.8887 0.4090 0.5470 0.7255 0.6756 0.8402 0.4269 0.7953 0.4173 0.3642 0.2857 0.3268 0.6384 0.5035 0.5325 1.0611 0.4961 2.0157 0.6401 0.4573 0.6695 0.4726 0.5669 0.9997 1.9582 0.5794 0.6321 0.8500 0.6159 0.6218 0.4422 0.4318 0.7869 0.5851 0.4780 0.3878 0.4453 0.4323 0.4298 0.2777 0.5537 0.7854 0.5200 0.4298 0.8104 0.7009 0.9618 0.3642 0.4473 0.6565 1.6804 0.5737 0.8960 0.8312 0.5163 0.7144 0.6660 0.5848 0.4773
0.9506 0.3921 0.5332 0.7215 0.6852 0.8210 0.3978 0.8303 0.3937 0.3485 0.2869 0.3299 0.6271 0.5053 0.5240 0.9926 0.4824 1.8345 0.5923 0.4441 0.6733 0.4385 0.5624 0.8941 1.8465 0.5551 0.5834 0.8618 0.5949 0.6408 0.4356 0.4223 0.7441 0.5694 0.4425 0.3779 0.4486 0.4245 0.4140 0.2823 0.5635 0.7911 0.5179 0.4234 0.7672 0.6959 0.9033 0.3660 0.4146 0.6351 1.6260 0.5528 0.8164 0.7811 0.4894 0.7161 0.6846 0.5980 0.4756
1.0553 0.3818 0.5210 0.7432 0.7097 0.8271 0.3869 0.7937 0.4008 0.3438 0.2736 0.3161 0.5912 0.4865 0.5009 0.9239 0.4735 1.6913 0.5824 0.4256 0.6478 0.4323 0.5403 0.9380 1.9027 0.5545 0.6113 0.9111 0.6103 0.6515 0.4381 0.4226 0.7655 0.5458 0.4220 0.3845 0.4553 0.3960 0.4121 0.2683 0.5361 0.7334 0.5160 0.4200 0.7266 0.6562 0.8434 0.3479 0.4168 0.6419 1.6155 0.5534 0.8351 0.8037 0.4879 0.7227 0.6923 0.5712 0.4798
1.0161 0.3919 0.4760 0.7018 0.7172 0.8242 0.3702 0.7537 0.3807 0.3531 0.2754 0.3020 0.5831 0.4785 0.4961 0.9670 0.4507 1.7487 0.5498 0.4143 0.6378 0.4421 0.5486 0.9679 1.9549 0.5408 0.5834 0.8843 0.6062 0.6337 0.4476 0.4068 0.7280 0.5303 0.4076 0.3695 0.4549 0.4078 0.4094 0.2617 0.5227 0.7354 0.5106 0.4112 0.7505 0.6426 0.7974 0.3506 0.4169 0.6436 1.6026 0.5323 0.8462 0.7693 0.4862 0.7204 0.6496 0.5555 0.4717
1.0446 0.3739 0.5017 0.7210 0.7072 0.8099 0.3735 0.7589 0.3919 0.3562 0.2710 0.2996 0.6044 0.4653 0.4983 0.9361 0.4434 1.7218 0.5449 0.4097 0.6221 0.4678 0.5318 0.9334 1.9399 0.5384 0.5943 0.9186 0.6026 0.6247 0.4408 0.4101 0.7438 0.5487 0.4244 0.3702 0.4912 0.3985 0.3970 0.2634 0.5304 0.7353 0.4865 0.3962 0.7183 0.6500 0.7866 0.3463 0.4288 0.6243 1.5958 0.5512 0.8133 0.7643 0.4666 0.7148 0.6701 0.5465 0.4614
1.0641 0.3744 0.4887 0.6915 0.6641 0.7831 0.3772 0.7872 0.3796 0.3352 0.2665 0.3016 0.5719 0.4563 0.4877 0.9231 0.4320 1.6040 0.5232 0.4010 0.6011 0.4315 0.5495 0.8958 1.7700 0.5397 0.5789 0.8912 0.6043 0.6376 0.4562 0.4163 0.7007 0.5265 0.4217 0.3447 0.4624 0.3860 0.3914 0.2643 0.5216 0.7072 0.4834 0.3917 0.7188 0.6424 0.7283 0.3324 0.4037 0.6474 1.5664 0.5311 0.8206 0.7327 0.4706 0.7038 0.6746 0.5382 0.4561
1.1053 0.3777 0.4752 0.6752 0.6894 0.7778 0.3746 0.7685 0.3830 0.3355 0.2594 0.2971 0.5841 0.4427 0.4882 0.9336 0.4222 1.6561 0.5177 0.4017 0.6094 0.4266 0.5241 0.9061 1.8535 0.5254 0.5905 0.9198 0.6080 0.6372 0.4767 0.4052 0.6973 0.5449 0.4091 0.3524 0.4331 0.3976 0.3742 0.2539 0.5187 0.7121 0.4696 0.3828 0.7198 0.6316 0.7138 0.3445 0.3815 0.6442 1.5569 0.5161 0.8261 0.7505 0.4489 0.7047 0.7059 0.5204 0.4718
1.1304 0.3718 0.4638 0.6850 0.7053 0.7280 0.3666 0.7622 0.3660 0.3321 0.2720 0.2882 0.5532 0.4290 0.4472 0.8325 0.4141 1.5050 0.5143 0.3913 0.6082 0.4225 0.5168 0.8648 1.7425 0.5452 0.5487 0.9514 0.6114 0.6180 0.4863 0.3847 0.7246 0.5399 0.3890 0.3330 0.4135 0.3833 0.3853 0.2551 0.4965 0.6778 0.4557 0.3732 0.6642 0.6128 0.6825 0.3407 0.3864 0.5977 1.5731 0.5346 0.7872 0.7364 0.4467 0.7164 0.7059 0.5238 0.4652
1.1122 0.3652 0.4532 0.6825 0.6843 0.7334 0.3618 0.7157 0.3605 0.3315 0.2586 0.2839 0.5414 0.4077 0.4325 0.8199 0.3996 1.4448 0.5318 0.3858 0.5817 0.4343 0.5321 0.9299 1.7156 0.5260 0.5730 0.9413 0.5884 0.6161 0.4882 0.3730 0.6959 0.5401 0.3917 0.3383 0.4066 0.3859 0.3772 0.2520 0.4904 0.6795 0.4295 0.3572 0.6634 0.5805 0.6578 0.3292 0.3932 0.6287 1.5778 0.5243 0.8625 0.7323 0.4409 0.6937 0.7335 0.5254 0.4513
1.1050 0.3659 0.4717 0.6660 0.6618 0.7508 0.3425 0.7397 0.3675 0.3220 0.2626 0.2771 0.5489 0.4063 0.4337 0.8180 0.3940 1.4366 0.5598 0.3935 0.5991 0.4423 0.5313 0.8727 1.7731 0.5242 0.5721 0.9419 0.5999 0.6141 0.5084 0.3826 0.6754 0.5149 0.3936 0.3337 0.4289 0.3818 0.3874 0.2500 0.4837 0.6588 0.4284 0.3591 0.6528 0.5983 0.6603 0.3405 0.3917 0.6180 1.5698 0.5309 0.8458 0.7348 0.4352 0.7006 0.7398 0.5392 0.4647
1.1366 0.3437 0.4620 0.6933 0.6592 0.7221 0.3351 0.6996 0.3376 0.3161 0.2470 0.2661 0.5227 0.4157 0.4282 0.7648 0.3797 1.3189 0.5233 0.3713 0.5659 0.4429 0.5348 0.8844 1.7085 0.5358 0.5733 0.9474 0.5900 0.6068 0.4917 0.3709 0.6776 0.5416 0.3884 0.3278 0.4128 0.3537 0.3714 0.2431 0.4607 0.6414 0.4341 0.3588 0.6329 0.5887 0.6259 0.3170 0.3981 0.5792 1.4976 0.5292 0.8475 0.7438 0.4303 0.6922 0.7644 0.5151 0.4440
1.1863 0.3437 0.4420 0.6423 0.6113 0.7147 0.3386 0.7082 0.3373 0.3080 0.2514 0.2627 0.5325 0.3846 0.4248 0.7982 0.3758 1.3301 0.5088 0.3670 0.5709 0.4151 0.5231 0.8739 1.6995 0.5083 0.5695 0.9706 0.5932 0.6307 0.5044 0.3602 0.6297 0.5210 0.3802 0.3160 0.4114 0.3417 0.3702 0.2395 0.4533 0.6221 0.4185 0.3534 0.6532 0.5809 0.6138 0.3142 0.3717 0.5728 1.4593 0.5316 0.8393 0.6978 0.4323 0.6859 0.7576 0.5070 0.4475
1.1610 0.3464 0.4415 0.6561 0.6277 0.7035 0.3256 0.6906 0.3343 0.3128 0.2438 0.2631 0.5015 0.4101 0.4235 0.7462 0.3739 1.3596 0.4963 0.3732 0.5601 0.3953 0.5057 0.8399 1.7190 0.5008 0.5579 0.9416 0.5929 0.6073 0.4844 0.3673 0.6648 0.5045 0.3630 0.3220 0.4036 0.3503 0.3539 0.2357 0.4508 0.6212 0.4218 0.3428 0.6024 0.5392 0.6339 0.3061 0.3849 0.5612 1.4686 0.4961 0.7767 0.7148 0.4214 0.6517 0.7666 0.4921 0.4365
1.1771 0.3286 0.4350 0.6421 0.6088 0.6964 0.3366 0.7039 0.3395 0.3140 0.2506 0.2599 0.5031 0.3892 0.4135 0.7491 0.3625 1.3266 0.5127 0.3711 0.5511 0.4078 0.5176 0.9282 1.6711 0.4706 0.5457 0.9700 0.5989 0.6192 0.5277 0.3515 0.6371 0.4860 0.3760 0.3125 0.3886 0.3518 0.3615 0.2424 0.4447 0.6229 0.4163 0.3456 0.6059 0.5615 0.6206 0.3113 0.3765 0.6133 1.4554 0.4961 0.7930 0.6990 0.4250 0.6549 0.7771 0.5110 0.4443
1.1490 0.3237 0.4150 0.6372 0.6226 0.7062 0.3273 0.7330 0.3304 0.3122 0.2544 0.2564 0.5269 0.4013 0.4122 0.7575 0.3569 1.3627 0.5035 0.3698 0.5356 0.3958 0.4767 0.8410 1.6429 0.4757 0.5412 0.9546 0.6044 0.5975 0.5173 0.3456 0.6289 0.5079 0.3812 0.3160 0.3936 0.3500 0.3600 0.2415 0.4579 0.6497 0.4241 0.3473 0.6105 0.5742 0.5916 0.3191 0.3592 0.5935 1.4701 0.4824 0.7700 0.6919 0.4086 0.6534 0.7768 0.4938 0.4348
1.1228 0.3346 0.4248 0.6435 0.6087 0.7105 0.3139 0.6614 0.3311 0.2976 0.2450 0.2730 0.4860 0.3869 0.4034 0.7507 0.3674 1.2518 0.4741 0.3641 0.5555 0.3975 0.4925 0.8726 1.6537 0.4641 0.5549 0.9285 0.6014 0.5754 0.5324 0.3526 0.6411 0.4744 0.3700 0.3157 0.3888 0.3321 0.3419 0.2365 0.4558 0.6085 0.4172 0.3436 0.6214 0.5555 0.5582 0.3257 0.3687 0.5757 1.5170 0.4724 0.7703 0.6845 0.4228 0.6241 0.7853 0.5056 0.4380
1.1338 0.3324 0.4074 0.6259 0.6111 0.6992 0.3249 0.6568 0.3206 0.3107 0.2587 0.2715 0.4761 0.3805 0.4033 0.7619 0.3707 1.3030 0.4900 0.3812 0.5311 0.3980 0.4855 0.9589 1.5722 0.4518 0.5559 0.9530 0.5635 0.5741 0.5332 0.3357 0.5901 0.4982 0.3665 0.3100 0.3837 0.3383 0.3560 0.2538 0.4401 0.5974 0.4229 0.3439 0.6097 0.5571 0.5735 0.3325 0.3799 0.6032 1.5293 0.4707 0.7690 0.6790 0.4162 0.6245 0.7736 0.4898 0.4457
1.1327 0.3196 0.4297 0.6343 0.6233 0.6807 0.3217 0.6616 0.3198 0.3144 0.2662 0.2649 0.5015 0.3741 0.4027 0.7441 0.3729 1.3059 0.4621 0.3687 0.5362 0.3942 0.4821 0.9486 1.6778 0.4406 0.5639 0.9067 0.5881 0.5804 0.5460 0.3503 0.6208 0.4808 0.3698 0.3120 0.3846 0.3317 0.3604 0.2528 0.4447 0.6066 0.4177 0.3449 0.5959 0.5617 0.6022 0.3342 0.3719 0.5701 1.4969 0.4669 0.7906 0.6925 0.4018 0.5946 0.8090 0.4901 0.4502
1.0810 0.3243 0.3904 0.6078 0.5976 0.6730 0.3172 0.6602 0.3098 0.3018 0.2597 0.2675 0.4770 0.3773 0.4106 0.7386 0.3720 1.2973 0.4549 0.3803 0.5257 0.3853 0.4802 0.8684 1.6159 0.4530 0.5452 0.9299 0.5873 0.5428 0.5303 0.3360 0.5653 0.4777 0.3359 0.3166 0.3856 0.3337 0.3581 0.2512 0.4281 0.5896 0.4125 0.3450 0.5897 0.5250 0.5686 0.3346 0.3805 0.5609 1.4820 0.4675 0.8055 0.6706 0.4045 0.6100 0.7769 0.4985 0.4361
1.1448 0.3026 0.3851 0.6054 0.6095 0.6434 0.3157 0.6485 0.3114 0.3021 0.2487 0.2614 0.4705 0.3701 0.4026 0.7221 0.3639 1.2843 0.4751 0.3775 0.5219 0.3937 0.4876 0.9066 1.5882 0.4235 0.5568 0.9522 0.5885 0.5607 0.5450 0.3250 0.5841 0.4936 0.3294 0.3009 0.3720 0.3331 0.3558 0.2438 0.4285 0.5843 0.4068 0.3363 0.5832 0.5199 0.5585 0.3370 0.3848 0.5646 1.4696 0.4444 0.7928 0.6532 0.3791 0.6095 0.7877 0.4932 0.4370
1.0947 0.3075 0.3658 0.5770 0.6110 0.6410 0.3072 0.6343 0.3100 0.2979 0.2495 0.2545 0.4652 0.3644 0.3877 0.7291 0.3673 1.2477 0.4814 0.3616 0.5224 0.4000 0.4993 0.9349 1.6235 0.4362 0.5221 0.9229 0.5804 0.5293 0.5319 0.3224 0.5626 0.4739 0.3145 0.2995 0.3807 0.3305 0.3565 0.2374 0.4120 0.5734 0.4067 0.3418 0.5901 0.5214 0.5658 0.3287 0.3724 0.5776 1.4336 0.4535 0.7869 0.6891 0.3844 0.6164 0.7896 0.4959 0.4326
1.1015 0.3001 0.3644 0.5708 0.5896 0.6543 0.3058 0.6373 0.3221 0.3017 0.2537 0.2640 0.4715 0.3730 0.3887 0.7521 0.3660 1.3617 0.4835 0.3790 0.5170 0.3870 0.4935 0.9640 1.5869 0.4201 0.5244 0.9383 0.5778 0.5353 0.5291 0.3073 0.5646 0.4650 0.3096 0.3026 0.3698 0.3333 0.3501 0.2469 0.4295 0.5842 0.4121 0.3434 0.6038 0.5230 0.5926 0.3349 0.3639 0.5735 1.4355 0.4382 0.7814 0.6818 0.3873 0.5811 0.7717 0.4851 0.4137
1.0481 0.3027 0.3605 0.5642 0.5740 0.6429 0.2911 0.6244 0.3178 0.3019 0.2437 0.2498 0.4516 0.3561 0.3775 0.7161 0.3540 1.2901 0.4600 0.3723 0.4956 0.3708 0.4758 0.9674 1.5252 0.4042 0.5281 0.9081 0.5642 0.5305 0.5290 0.3082 0.5493 0.4714 0.3126 0.2877 0.3466 0.3320 0.3489 0.2372 0.4068 0.5549 0.3901 0.3229 0.5763 0.5258 0.5766 0.3166 0.3492 0.5819 1.3923 0.4398 0.7519 0.6844 0.3819 0.5655 0.7627 0.4669 0.4135
1.0257 0.2881 0.3596 0.5639 0.6018 0.6375 0.3077 0.6144 0.3173 0.3002 0.2408 0.2436 0.4571 0.3433 0.3855 0.7662 0.3492 1.3304 0.4442 0.3741 0.4888 0.3919 0.4926 1.0022 1.6356 0.4234 0.5583 0.8901 0.5613 0.5271 0.5459 0.3068 0.5475 0.4675 0.3086 0.2955 0.3765 0.3264 0.3495 0.2310 0.4138 0.5459 0.3825 0.3190 0.6053 0.5205 0.5396 0.3126 0.3612 0.5767 1.3646 0.4427 0.8086 0.7246 0.3785 0.5662 0.7548 0.4506 0.4250
1.0839 0.2900 0.3582 0.5768 0.6067 0.6274 0.3161 0.6314 0.2975 0.2801 0.2354 0.2513 0.4522 0.3506 0.3918 0.7352 0.3282 1.3008 0.4564 0.3674 0.4805 0.3737 0.4591 1.0097 1.5629 0.3940 0.5544 0.9222 0.6000 0.5390 0.5184 0.3054 0.5530 0.4799 0.3165 0.2887 0.3630 0.3133 0.3354 0.2307 0.4097 0.5585 0.3859 0.3138 0.5705 0.5257 0.5277 0.3060 0.3600 0.6048 1.4359 0.4277 0.7535 0.7045 0.3674 0.5642 0.7531 0.4644 0.4085
1.0105 0.2825 0.3487 0.5780 0.6022 0.6316 0.3216 0.5862 0.2931 0.2931 0.2227 0.2404 0.4440 0.3420 0.3612 0.6887 0.3307 1.2632 0.4716 0.3462 0.4814 0.3781 0.4459 0.9185 1.5753 0.3912 0.5212 0.8842 0.5559 0.5155 0.4938 0.2894 0.5445 0.4895 0.3153 0.3011 0.3564 0.3150 0.3286 0.2204 0.3954 0.5467 0.3741 0.2993 0.5442 0.4838 0.5438 0.2933 0.3504 0.5897 1.3670 0.4299 0.7306 0.6786 0.3603 0.5553 0.7569 0.4432 0.4031
1.0132 0.2805 0.3578 0.5746 0.6232 0.6226 0.3258 0.5809 0.2984 0.2766 0.2220 0.2282 0.4184 0.3392 0.3763 0.7297 0.3283 1.3488 0.4818 0.3371 0.4721 0.3678 0.4795 0.8740 1.4927 0.3886 0.5029 0.8872 0.5311 0.5167 0.4865 0.2909 0.5379 0.4918 0.3155 0.2936 0.3741 0.3117 0.3239 0.2134 0.3751 0.5188 0.3681 0.2962 0.5638 0.4824 0.5437 0.2906 0.3304 0.5846 1.3780 0.4224 0.7616 0.6487 0.3514 0.5608 0.7457 0.4405 0.3872
0.9982 0.2754 0.3607 0.5967 0.6296 0.6167 0.3084 0.5967 0.3097 0.2621 0.2154 0.2223 0.4274 0.3326 0.3737 0.7377 0.3196 1.3602 0.4840 0.3321 0.4476 0.3770 0.4709 0.9190 1.5745 0.3885 0.5080 0.8700 0.5355 0.5124 0.4714 0.2994 0.5522 0.5037 0.3176 0.2793 0.3760 0.3005 0.3036 0.2084 0.3901 0.5315 0.3513 0.2846 0.5530 0.4830 0.5596 0.2794 0.3324 0.5752 1.3268 0.4234 0.7669 0.6505 0.3560 0.5575 0.7474 0.4239 0.3960
0.9996 0.2669 0.3541 0.5888 0.5990 0.6197 0.2992 0.6229 0.2749 0.2681 0.2121 0.2104 0.4291 0.3255 0.3622 0.7346 0.3216 1.3975 0.4791 0.3363 0.4473 0.3909 0.4954 0.9106 1.5316 0.3822 0.5180 0.8351 0.5621 0.5117 0.4848 0.3013 0.5471 0.4987 0.3308 0.2760 0.3534 0.2843 0.3117 0.1996 0.3701 0.5181 0.3368 0.2747 0.5477 0.4757 0.5818 0.2777 0.3357 0.5676 1.4002 0.4183 0.7914 0.6444 0.3468 0.5231 0.7078 0.4322 0.3972
0.9524 0.2576 0.3485 0.6001 0.6318 0.6019 0.3094 0.5906 0.2747 0.2590 0.2020 0.2079 0.4248 0.3282 0.3647 0.6933 0.3032 1.2820 0.4534 0.3179 0.4309 0.3673 0.5008 0.8846 1.5104 0.3634 0.5017 0.8388 0.5243 0.4872 0.4728 0.2875 0.5598 0.4952 0.3374 0.2747 0.3563 0.2843 0.2990 0.1983 0.3656 0.5160 0.3337 0.2701 0.5184 0.4464 0.5364 0.2652 0.3196 0.5557 1.2894 0.4118 0.7681 0.5898 0.3417 0.5267 0.6825 0.4164 0.3848
0.9089 0.2508 0.3383 0.5535 0.5851 0.5953 0.3099 0.5857 0.2813 0.2670 0.2050 0.2037 0.4129 0.3194 0.3523 0.6942 0.3014 1.3061 0.4465 0.3089 0.4266 0.3458 0.4989 0.9665 1.4328 0.3584 0.5241 0.8010 0.5351 0.4746 0.4683 0.2706 0.5227 0.4660 0.3246 0.2744 0.3352 0.2784 0.3122 0.1973 0.3552 0.4915 0.3317 0.2738 0.5269 0.4719 0.5402 0.2604 0.3132 0.5891 1.2485 0.3860 0.7355 0.6337 0.3272 0.5253 0.6439 0.3961 0.3680
0.8700 0.2712 0.3386 0.5271 0.5516 0.5598 0.3046 0.6015 0.2931 0.2613 0.2034 0.1977 0.4241 0.3143 0.3489 0.7018 0.2986 1.3550 0.4591 0.3085 0.4467 0.3503 0.4811 0.8685 1.4299 0.3643 0.5259 0.7964 0.5131 0.4571 0.4521 0.2724 0.5211 0.4674 0.3133 0.2576 0.3387 0.2742 0.3008 0.1886 0.3532 0.4875 0.3260 0.2659 0.5173 0.4449 0.5450 0.2561 0.2982 0.5699 1.3185 0.3959 0.7184 0.6135 0.3287 0.5102 0.6434 0.4111 0.3587
0.8220 0.2668 0.3237 0.5019 0.5604 0.5698 0.3059 0.6048 0.2818 0.2592 0.1997 0.1957 0.3945 0.2987 0.3596 0.7467 0.3047 1.3974 0.4541 0.3128 0.4364 0.3599 0.4820 0.8494 1.4324 0.3664 0.5491 0.7773 0.5005 0.4470 0.4157 0.2606 0.4939 0.4626 0.3196 0.2612 0.3346 0.2840 0.2940 0.1928 0.3401 0.4537 0.3159 0.2560 0.5444 0.4615 0.5594 0.2516 0.2991 0.5447 1.3130 0.4068 0.7817 0.5915 0.3297 0.5034 0.6078 0.4173 0.3487
0.8138 0.2523 0.3179 0.5009 0.5641 0.5647 0.2958 0.5713 0.2680 0.2468 0.1946 0.1877 0.4011 0.3040 0.3464 0.7398 0.3032 1.4350 0.4735 0.3078 0.4362 0.3481 0.4476 0.8507 1.4374 0.3704 0.5111 0.7350 0.4698 0.4400 0.4078 0.2473 0.4977 0.4450 0.3032 0.2598 0.3239 0.2759 0.2965 0.1819 0.3480 0.4788 0.3167 0.2579 0.5416 0.4533 0.5589 0.2550 0.2887 0.5472 1.3312 0.4066 0.7913 0.5814 0.3081 0.5017 0.5851 0.4141 0.3373
0.7459 0.2422 0.3112 0.4839 0.5494 0.5246 0.2681 0.5565 0.2570 0.2471 0.1898 0.1868 0.3929 0.3013 0.3601 0.7686 0.2939 1.4746 0.5123 0.2999 0.4086 0.3609 0.4526 0.9173 1.3495 0.3516 0.5056 0.7260 0.4634 0.4205 0.4032 0.2508 0.4787 0.4266 0.2939 0.2410 0.3204 0.2639 0.2820 0.1807 0.3381 0.4676 0.3131 0.2472 0.5424 0.4502 0.5459 0.2462 0.2904 0.6219 1.2071 0.3989 0.7960 0.5850 0.3002 0.5021 0.5688 0.3920 0.3384
0.7261 0.2447 0.3193 0.4776 0.5360 0.5195 0.2629 0.5533 0.2515 0.2376 0.1893 0.1837 0.3957 0.2955 0.3691 0.7900 0.2912 1.5371 0.4996 0.2863 0.4169 0.3742 0.4460 0.8264 1.3316 0.3595 0.4555 0.6988 0.4413 0.4225 0.3871 0.2519 0.4877 0.4141 0.2812 0.2337 0.3233 0.2513 0.2753 0.1764 0.3335 0.4641 0.3017 0.2466 0.5417 0.4371 0.5512 0.2445 0.2959 0.5782 1.2763 0.3965 0.7894 0.5545 0.3028 0.4833 0.5357 0.3995 0.3310
0.7433 0.2380 0.3003 0.4629 0.5584 0.5310 0.2561 0.5840 0.2491 0.2396 0.1923 0.1787 0.3939 0.2921 0.3557 0.7430 0.3003 1.4957 0.4862 0.3022 0.4154 0.3597 0.4444 0.8402 1.4048 0.3513 0.4635 0.6913 0.4449 0.4237 0.3635 0.2377 0.4768 0.4161 0.2693 0.2504 0.3315 0.2461 0.2893 0.1742 0.3310 0.4574 0.2953 0.2519 0.5384 0.4268 0.5634 0.2463 0.2856 0.5717 1.2822 0.4156 0.8009 0.5608 0.2923 0.4741 0.5363 0.3883 0.3287
0.7106 0.2372 0.2999 0.4551 0.5299 0.5107 0.2467 0.5325 0.2379 0.2298 0.1839 0.1785 0.3742 0.2937 0.3427 0.7483 0.2961 1.4839 0.4644 0.2907 0.4041 0.3370 0.4433 0.8767 1.4144 0.3352 0.4498 0.6753 0.4289 0.4245 0.3555 0.2425 0.4671 0.3994 0.2521 0.2297 0.3196 0.2493 0.2818 0.1706 0.3137 0.4461 0.2993 0.2306 0.5225 0.4154 0.5396 0.2442 0.2784 0.5888 1.2525 0.3852 0.7864 0.5536 0.2935 0.4701 0.5416 0.3883 0.3143
0.6825 0.2331 0.3074 0.4615 0.5601 0.5110 0.2630 0.5286 0.2468 0.2329 0.1845 0.1731 0.3864 0.2896 0.3575 0.7849 0.2970 1.5427 0.4648 0.2930 0.3909 0.3411 0.4710 0.8972 1.3789 0.3223 0.4662 0.6311 0.4288 0.4050 0.3478 0.2387 0.4912 0.4006 0.2643 0.2379 0.3204 0.2514 0.2800 0.1718 0.3201 0.4595 0.2897 0.2390 0.5411 0.4250 0.5739 0.2319 0.2850 0.5819 1.2880 0.3613 0.7930 0.5772 0.2865 0.4529 0.5211 0.3939 0.3029
0.6537 0.2250 0.3231 0.4555 0.5321 0.5135 0.2574 0.5233 0.2388 0.2262 0.1757 0.1683 0.3975 0.2921 0.3588 0.7884 0.2937 1.5385 0.4509 0.2802 0.3953 0.3115 0.4703 0.8256 1.3393 0.3271 0.4323 0.6213 0.4164 0.4163 0.3380 0.2323 0.5078 0.3911 0.2693 0.2363 0.3206 0.2379 0.2630 0.1683 0.3149 0.4623 0.2927 0.2392 0.5418 0.4276 0.5907 0.2227 0.2737 0.5646 1.1992 0.3618 0.7221 0.5390 0.2881 0.4345 0.4791 0.3785 0.2924
0.6566 0.2352 0.2966 0.4484 0.5264 0.5233 0.2513 0.5756 0.2499 0.2320 0.1818 0.1698 0.3725 0.2839 0.3565 0.8088 0.3033 1.6024 0.4670 0.2818 0.3813 0.3343 0.5026 0.9109 1.3954 0.3086 0.4535 0.5972 0.4181 0.4134 0.3461 0.2396 0.4962 0.3841 0.2661 0.2377 0.3297 0.2240 0.2839 0.1674 0.3211 0.4494 0.2858 0.2337 0.5510 0.4204 0.5943 0.2383 0.2980 0.6010 1.2553 0.3588 0.7532 0.5765 0.2882 0.4317 0.4848 0.3828 0.3123
0.6180 0.2243 0.2757 0.4414 0.5062 0.5269 0.2576 0.5463 0.2472 0.2234 0.1732 0.1620 0.3594 0.2791 0.3520 0.7903 0.2941 1.5480 0.4800 0.2767 0.3655 0.3218 0.4812 0.9886 1.3374 0.2968 0.4504 0.5936 0.4001 0.3786 0.3355 0.2332 0.4691 0.4110 0.2567 0.2368 0.2965 0.2255 0.2648 0.1628 0.3049 0.4261 0.2852 0.2271 0.5315 0.4202 0.5909 0.2247 0.2913 0.6118 1.1994 0.3410 0.7437 0.5759 0.2901 0.4149 0.4853 0.3634 0.2954
0.6143 0.2184 0.2622 0.4488 0.5242 0.5111 0.2612 0.5436 0.2467 0.2126 0.1731 0.1590 0.3871 0.2811 0.3668 0.8472 0.2927 1.6773 0.4979 0.2706 0.3610 0.3267 0.5140 0.9729 1.3809 0.2981 0.4398 0.5789 0.4089 0.3679 0.3348 0.2374 0.4694 0.3979 0.2424 0.2278 0.3056 0.2200 0.2631 0.1626 0.3064 0.4454 0.2782 0.2201 0.5474 0.4198 0.6204 0.2288 0.2970 0.6062 1.1863 0.3532 0.8018 0.5614 0.2690 0.4187 0.4824 0.3542 0.2846
0.6134 0.2240 0.2538 0.4232 0.5038 0.4999 0.2293 0.5159 0.2375 0.2145 0.1734 0.1575 0.3720 0.2823 0.3461 0.8265 0.2859 1.6684 0.4818 0.2641 0.3624 0.3191 0.5010 0.9557 1.3444 0.2947 0.4403 0.5380 0.4015 0.3746 0.3091 0.2206 0.4470 0.3677 0.2311 0.2264 0.3078 0.2158 0.2528 0.1639 0.3031 0.4334 0.2807 0.2173 0.5418 0.4156 0.5945 0.2305 0.2847 0.5359 1.2197 0.3446 0.8129 0.5524 0.2724 0.4042 0.4374 0.3573 0.2815
0.5787 0.2172 0.2635 0.4259 0.5301 0.4946 0.2519 0.5173 0.2363 0.2208 0.1693 0.1581 0.3627 0.2829 0.3455 0.8120 0.2923 1.6359 0.4923 0.2697 0.3613 0.3095 0.4867 0.8181 1.3254 0.3049 0.4379 0.5325 0.3849 0.3687 0.3102 0.2257 0.4621 0.3920 0.2325 0.2211 0.3165 0.2210 0.2567 0.1613 0.2969 0.4146 0.2818 0.2230 0.5423 0.4201 0.6099 0.2170 0.2685 0.5399 1.2162 0.3543 0.7770 0.5461 0.2652 0.3863 0.4387 0.3601 0.2687
0.5487 0.2072 0.2503 0.4262 0.5641 0.4839 0.2337 0.5478 0.2301 0.2127 0.1656 0.1545 0.3495 0.2755 0.3516 0.8738 0.2933 1.7902 0.5080 0.2546 0.3417 0.3227 0.5033 0.8983 1.2765 0.2863 0.4422 0.5219 0.3559 0.3592 0.3064 0.2201 0.4615 0.3894 0.2212 0.2226 0.3260 0.2160 0.2476 0.1593 0.2951 0.4184 0.2693 0.2111 0.5606 0.4102 0.6336 0.2157 0.2758 0.5517 1.1571 0.3277 0.8510 0.5215 0.2580 0.3853 0.4416 0.3439 0.2807
0.5276 0.2102 0.2589 0.4045 0.5427 0.4884 0.2325 0.5217 0.2176 0.2061 0.1695 0.1511 0.3603 0.2757 0.3563 0.8860 0.3019 1.7752 0.5095 0.2558 0.3402 0.3245 0.5048 0.8797 1.3072 0.2926 0.4382 0.5167 0.3591 0.3476 0.2839 0.2110 0.4653 0.3752 0.2245 0.2252 0.3259 0.2091 0.2475 0.1529 0.2879 0.4269 0.2710 0.2133 0.5676 0.4155 0.6395 0.2221 0.2690 0.5426 1.2335 0.3411 0.8400 0.5162 0.2643 0.3678 0.4223 0.3602 0.2647
0.5025 0.2133 0.2615 0.4113 0.5483 0.4611 0.2195 0.5112 0.2197 0.2097 0.1623 0.1508 0.3555 0.2703 0.3486 0.9044 0.3064 1.8740 0.5412 0.2486 0.3384 0.3120 0.4887 0.7579 1.2296 0.3113 0.4235 0.4967 0.3477 0.3490 0.2757 0.2131 0.4579 0.3468 0.2121 0.2127 0.3384 0.2109 0.2416 0.1543 0.2890 0.4186 0.2639 0.2045 0.5738 0.4004 0.6662 0.2158 0.2642 0.5454 1.1650 0.3699 0.8363 0.4979 0.2628 0.3591 0.4071 0.3540 0.2600
0.4879 0.2080 0.2411 0.4079 0.5283 0.4595 0.2251 0.5025 0.2167 0.2001 0.1648 0.1499 0.3606 0.2742 0.3558 0.9061 0.3033 1.8723 0.5726 0.2459 0.3390 0.3119 0.4675 0.7844 1.2272 0.3552 0.4284 0.5066 0.3447 0.3239 0.2761 0.2077 0.4131 0.3446 0.2145 0.2158 0.3287 0.2063 0.2360 0.1520 0.2891 0.4313 0.2615 0.2082 0.5644 0.4058 0.6993 0.2134 0.2629 0.5390 1.1153 0.4069 0.8421 0.5609 0.2499 0.3886 0.4306 0.3314 0.2527
0.4897 0.2153 0.2632 0.3875 0.5218 0.4568 0.2331 0.5068 0.2272 0.1962 0.1628 0.1453 0.3682 0.2734 0.3457 0.8608 0.2962 1.8660 0.5670 0.2480 0.3478 0.3182 0.4543 0.8132 1.1949 0.3660 0.4308 0.5395 0.3323 0.3376 0.2912 0.2066 0.4258 0.3747 0.2191 0.2161 0.3082 0.2077 0.2314 0.1490 0.2857 0.4151 0.2607 0.2040 0.5437 0.4058 0.6767 0.2121 0.2550 0.5322 1.1242 0.4081 0.8347 0.6036 0.2442 0.4060 0.4468 0.3399 0.2498
0.4903 0.2083 0.2610 0.3998 0.4953 0.4348 0.2319 0.4828 0.2287 0.1857 0.1591 0.1418 0.3574 0.2686 0.3425 0.8915 0.2941 1.9619 0.6068 0.2453 0.3352 0.3200 0.4801 0.9148 1.1201 0.3841 0.4042 0.5603 0.3383 0.3374 0.3100 0.1946 0.4081 0.3695 0.2270 0.2070 0.2994 0.2017 0.2135 0.1431 0.2791 0.4150 0.2654 0.2003 0.5491 0.3989 0.7002 0.2140 0.2673 0.5656 1.0922 0.3969 0.8136 0.6347 0.2432 0.4204 0.4467 0.3222 0.2436
0.4986 0.2072 0.2540 0.3716 0.4755 0.4447 0.2292 0.5062 0.2278 0.1892 0.1619 0.1390 0.3698 0.2632 0.3450 0.9123 0.2993 1.9876 0.5771 0.2385 0.3309 0.3043 0.4487 0.8642 1.1369 0.3695 0.3988 0.5485 0.3342 0.3400 0.3052 0.1910 0.3919 0.3501 0.2319 0.2082 0.2988 0.1985 0.2183 0.1450 0.2825 0.4125 0.2564 0.1937 0.5620 0.4108 0.6918 0.2126 0.2524 0.5880 1.0851 0.3981 0.7808 0.6087 0.2347 0.4131 0.4142 0.3178 0.2437
0.4714 0.1988 0.2633 0.3734 0.4871 0.4265 0.2355 0.4725 0.2175 0.1799 0.1519 0.1318 0.3480 0.2773 0.3518 0.9519 0.3040 2.0264 0.5645 0.2352 0.3243 0.3092 0.4470 0.8515 1.1725 0.3381 0.4273 0.5277 0.3256 0.3321 0.2890 0.1921 0.4117 0.3545 0.2259 0.2013 0.2832 0.1957 0.2116 0.1413 0.2685 0.4091 0.2528 0.1869 0.5662 0.3952 0.7280 0.1984 0.2490 0.5722 1.0881 0.3674 0.8106 0.5758 0.2325 0.3950 0.3918 0.3189 0.2398
0.4384 0.1956 0.2385 0.3749 0.5059 0.4336 0.2229 0.4936 0.2130 0.1864 0.1525 0.1408 0.3315 0.2626 0.3583 0.9649 0.3010 2.0497 0.5254 0.2361 0.3170 0.2972 0.4456 0.8310 1.2243 0.3026 0.4083 0.4689 0.3132 0.3110 0.2731 0.1973 0.4069 0.3416 0.2084 0.1986 0.3029 0.1985 0.2140 0.1407 0.2766 0.3981 0.2506 0.1928 0.5832 0.3704 0.6983 0.1982 0.2449 0.5688 1.1030 0.3372 0.7935 0.5188 0.2366 0.3646 0.3539 0.3136 0.2384
0.4366 0.1838 0.2362 0.3580 0.4405 0.4003 0.2070 0.4823 0.2119 0.1772 0.1475 0.1336 0.3239 0.2521 0.3544 0.9859 0.3060 2.0557 0.5044 0.2239 0.3011 0.2740 0.4664 0.8438 1.1482 0.2682 0.4203 0.4766 0.3032 0.3102 0.2631 0.1837 0.3822 0.3165 0.2025 0.1865 0.2839 0.1895 0.2060 0.1375 0.2643 0.3873 0.2437 0.1844 0.6016 0.3752 0.6856 0.1904 0.2361 0.5655 1.0772 0.3151 0.8143 0.5007 0.2337 0.3419 0.3631 0.3117 0.2166
0.4246 0.1837 0.2360 0.3598 0.4518 0.4057 0.1997 0.4848 0.2012 0.1762 0.1528 0.1326 0.3191 0.2548 0.3621 0.9946 0.3073 2.0710 0.4884 0.2310 0.3002 0.2823 0.4413 0.8196 1.1347 0.2497 0.4241 0.4427 0.3038 0.3106 0.2530 0.1872 0.3863 0.3090 0.1987 0.1849 0.2885 0.1846 0.2031 0.1403 0.2615 0.3865 0.2482 0.1881 0.5921 0.3679 0.7041 0.1959 0.2348 0.5287 1.0751 0.2988 0.8105 0.4733 0.2316 0.3235 0.3441 0.3069 0.2248
0.4164 0.1825 0.2331 0.3460 0.4300 0.4138 0.1916 0.4412 0.1991 0.1735 0.1440 0.1326 0.3222 0.2571 0.3472 0.9733 0.3016 2.0672 0.4969 0.2232 0.3010 0.2964 0.4652 0.8796 1.1325 0.2383 0.4244 0.4143 0.2859 0.3053 0.2439 0.1853 0.3782 0.3071 0.1959 0.1843 0.2754 0.1781 0.1924 0.1344 0.2552 0.3808 0.2421 0.1794 0.5677 0.3735 0.7365 0.1878 0.2396 0.5368 1.0325 0.2927 0.8163 0.4857 0.2263 0.3076 0.3309 0.3014 0.2204
0.3907 0.1804 0.2235 0.3444 0.4372 0.4060 0.1989 0.4397 0.1983 0.1740 0.1436 0.1263 0.3060 0.2496 0.3556 0.9866 0.2999 2.1267 0.5253 0.2212 0.2944 0.2845 0.4732 0.9570 1.1331 0.2640 0.4293 0.4330 0.2820 0.2978 0.2521 0.1848 0.3739 0.3141 0.2018 0.1786 0.2747 0.1750 0.1979 0.1352 0.2428 0.3677 0.2384 0.1843 0.5795 0.3764 0.7228 0.1890 0.2337 0.5882 1.0608 0.3046 0.8279 0.5510 0.2157 0.3216 0.3553 0.2983 0.2228
0.4061 0.1738 0.2216 0.3462 0.4360 0.3991 0.1924 0.4297 0.2009 0.1661 0.1421 0.1272 0.3176 0.2495 0.3502 0.9749 0.3170 2.1158 0.4975 0.2128 0.2783 0.2702 0.4639 0.7640 1.0867 0.2641 0.3930 0.4479 0.2893 0.2963 0.2372 0.1791 0.3837 0.3065 0.1936 0.1772 0.2653 0.1703 0.1884 0.1351 0.2515 0.3701 0.2303 0.1791 0.5789 0.3524 0.7493 0.1919 0.2224 0.5365 0.9963 0.2988 0.7736 0.4723 0.2129 0.3287 0.3446 0.2875 0.2239
0.3897 0.1709 0.2151 0.3266 0.4208 0.3969 0.1829 0.4224 0.2038 0.1675 0.1348 0.1281 0.3140 0.2453 0.3435 1.0037 0.3105 2.1743 0.5101 0.2142 0.2766 0.2623 0.4337 0.8150 1.0753 0.2570 0.4206 0.4313 0.2810 0.2817 0.2439 0.1753 0.3651 0.2970 0.1817 0.1817 0.2716 0.1667 0.1893 0.1312 0.2534 0.3743 0.2420 0.1807 0.5874 0.3617 0.7475 0.1769 0.2284 0.5201 0.9884 0.2911 0.7870 0.5206 0.2114 0.3164 0.3374 0.2829 0.2062
0.3771 0.1690 0.2230 0.3263 0.4287 0.3764 0.1850 0.4275 0.1902 0.1597 0.1348 0.1201 0.3005 0.2390 0.3388 0.9921 0.3124 2.1084 0.5026 0.2077 0.2781 0.2618 0.4347 0.7887 1.0759 0.2597 0.4118 0.4312 0.2759 0.2753 0.2359 0.1686 0.3568 0.2916 0.1822 0.1749 0.2672 0.1718 0.1808 0.1252 0.2372 0.3612 0.2220 0.1652 0.5685 0.3644 0.7401 0.1798 0.2171 0.5195 0.9694 0.2919 0.7964 0.5106 0.2071 0.3243 0.3316 0.2705 0.2122
0.3791 0.1718 0.2142 0.3119 0.4274 0.3682 0.1707 0.4110 0.1866 0.1545 0.1323 0.1207 0.2907 0.2413 0.3484 1.0599 0.3100 2.2871 0.5106 0.1976 0.2733 0.2750 0.4608 0.7911 1.0562 0.2514 0.4227 0.4202 0.2722 0.2755 0.2322 0.1706 0.3490 0.2824 0.1873 0.1673 0.2713 0.1632 0.1676 0.1256 0.2297 0.3452 0.2235 0.1667 0.6035 0.3589 0.7670 0.1785 0.2193 0.5316 1.0071 0.2874 0.8501 0.4937 0.2131 0.3049 0.3389 0.2768 0.2035
0.3777 0.1611 0.2134 0.3009 0.3971 0.3591 0.1804 0.4062 0.1776 0.1557 0.1287 0.1136 0.2940 0.2380 0.3434 1.0341 0.3028 2.2200 0.5209 0.1981 0.2621 0.2629 0.4583 0.7804 0.9946 0.2365 0.3971 0.4039 0.2705 0.2707 0.2480 0.1645 0.3373 0.2772 0.1744 0.1677 0.2473 0.1592 0.1681 0.1205 0.2259 0.3455 0.2188 0.1673 0.5832 0.3585 0.7719 0.1741 0.2099 0.5304 0.9164 0.2727 0.7855 0.4933 0.2012 0.2877 0.3130 0.2625 0.2053
0.3766 0.1596 0.2139 0.3108 0.4502 0.3755 0.1822 0.4124 0.1787 0.1478 0.1312 0.1159 0.2856 0.2368 0.3518 1.0653 0.3086 2.2685 0.5099 0.2039 0.2656 0.2611 0.4567 0.7682 1.0109 0.2495 0.3881 0.3812 0.2626 0.2749 0.2370 0.1693 0.3613 0.2836 0.1742 0.1697 0.2732 0.1592 0.1721 0.1212 0.2294 0.3453 0.2195 0.1656 0.6046 0.3508 0.7593 0.1753 0.2178 0.5064 0.9627 0.2764 0.8191 0.4891 0.1957 0.2961 0.3016 0.2595 0.2043
0.3537 0.1638 0.2144 0.3264 0.4213 0.3621 0.1787 0.4144 0.1771 0.1441 0.1263 0.1144 0.2931 0.2341 0.3368 1.0363 0.3001 2.2855 0.4895 0.1932 0.2566 0.2439 0.4323 0.7938 0.9659 0.2573 0.3844 0.3945 0.2595 0.2614 0.2230 0.1693 0.3652 0.2933 0.1672 0.1655 0.2604 0.1526 0.1631 0.1228 0.2305 0.3463 0.2289 0.1576 0.5899 0.3466 0.7532 0.1708 0.2069 0.5135 0.9136 0.2915 0.7802 0.4985 0.1931 0.2928 0.3056 0.2600 0.1937
0.3337 0.1581 0.1990 0.3154 0.4097 0.3593 0.1800 0.4150 0.1847 0.1441 0.1316 0.1111 0.2849 0.2288 0.3432 1.0480 0.3077 2.3505 0.5047 0.1961 0.2633 0.2522 0.4306 0.7872 1.0039 0.2482 0.3824 0.3749 0.2593 0.2539 0.2173 0.1656 0.3317 0.2913 0.1675 0.1636 0.2657 0.1616 0.1608 0.1180 0.2246 0.3395 0.2158 0.1552 0.5857 0.3307 0.7753 0.1782 0.2105 0.5269 0.9596 0.2813 0.7941 0.4819 0.1857 0.2890 0.3008 0.2546 0.1955
0.3223 0.1497 0.2051 0.3018 0.3942 0.3569 0.1756 0.3970 0.1735 0.1463 0.1216 0.1074 0.2687 0.2208 0.3430 1.0527 0.3056 2.3148 0.4730 0.1934 0.2483 0.2448 0.4431 0.7614 0.9382 0.2452 0.3626 0.3702 0.2422 0.2451 0.2116 0.1566 0.3217 0.2919 0.1736 0.1635 0.2468 0.1523 0.1588 0.1158 0.2134 0.3173 0.2112 0.1564 0.5992 0.3311 0.7564 0.1690 0.1967 0.5480 0.9163 0.2784 0.7868 0.4533 0.1877 0.2817 0.2920 0.2498 0.1881
0.3090 0.1532 0.2003 0.2902 0.3989 0.3466 0.1634 0.3843 0.1703 0.1404 0.1209 0.1038 0.2683 0.2287 0.3449 1.0561 0.3138 2.2999 0.4985 0.1914 0.2472 0.2443 0.4518 0.8060 0.9778 0.2259 0.3737 0.3633 0.2485 0.2345 0.2049 0.1582 0.3273 0.2903 0.1648 0.1557 0.2465 0.1482 0.1545 0.1115 0.2082 0.3272 0.2101 0.1607 0.6010 0.3304 0.7685 0.1641 0.2063 0.5389 0.9080 0.2773 0.8021 0.4440 0.1890 0.2744 0.3037 0.2494 0.1872
0.3011 0.1451 0.1964 0.2817 0.3828 0.3483 0.1584 0.3849 0.1686 0.1369 0.1214 0.1030 0.2740 0.2236 0.3430 1.0736 0.3086 2.3310 0.4857 0.1773 0.2396 0.2498 0.4215 0.7018 0.9540 0.2182 0.3760 0.3708 0.2335 0.2319 0.1871 0.1527 0.3148 0.2605 0.1575 0.1563 0.2531 0.1458 0.1509 0.1095 0.2141 0.3314 0.2013 0.1519 0.5914 0.3173 0.7703 0.1586 0.1994 0.5023 0.8786 0.2553 0.7864 0.4310 0.1817 0.2814 0.3186 0.2435 0.1857
0.3045 0.1459 0.1763 0.2727 0.3837 0.3266 0.1653 0.3710 0.1602 0.1368 0.1199 0.1006 0.2561 0.2208 0.3365 1.0675 0.2954 2.2963 0.4607 0.1741 0.2287 0.2177 0.4086 0.6671 0.8978 0.2007 0.3582 0.3468 0.2294 0.2265 0.1787 0.1454 0.3120 0.2717 0.1597 0.1513 0.2402 0.1408 0.1435 0.1101 0.2005 0.3172 0.2022 0.1488 0.5973 0.3161 0.7168 0.1601 0.1895 0.4815 0.9207 0.2282 0.7505 0.3915 0.1722 0.2710 0.3023 0.2456 0.1784
0.3134 0.1462 0.1774 0.2698 0.3712 0.3204 0.1584 0.3659 0.1463 0.1261 0.1154 0.1024 0.2488 0.2156 0.3154 0.9887 0.2870 2.1919 0.4846 0.1790 0.2332 0.2333 0.4280 0.6743 0.9289 0.1984 0.3635 0.3499 0.2279 0.2306 0.1800 0.1437 0.3175 0.2711 0.1524 0.1481 0.2197 0.1376 0.1425 0.1081 0.1917 0.3032 0.2015 0.1449 0.5586 0.3144 0.7277 0.1551 0.1920 0.4894 0.8529 0.2415 0.7434 0.4165 0.1775 0.2668 0.3071 0.2359 0.1775
0.3051 0.1367 0.1875 0.2784 0.3940 0.3146 0.1573 0.3544 0.1493 0.1265 0.1096 0.0951 0.2496 0.2140 0.3199 1.0315 0.2906 2.2349 0.4988 0.1719 0.2254 0.2199 0.4227 0.7750 0.9304 0.1957 0.3486 0.3552 0.2229 0.2352 0.1920 0.1367 0.3425 0.2602 0.1474 0.1479 0.2293 0.1350 0.1364 0.1051 0.1882 0.3075 0.1965 0.1417 0.5819 0.3058 0.7389 0.1521 0.1979 0.5253 0.8456 0.2441 0.7220 0.4229 0.1750 0.2634 0.3128 0.2363 0.1700
0.2904 0.1339 0.1711 0.2588 0.3866 0.3135 0.1555 0.3514 0.1469 0.1195 0.1083 0.0987 0.2443 0.2072 0.3187 1.0223 0.2904 2.2355 0.4464 0.1657 0.2174 0.2004 0.4097 0.6150 0.9087 0.1910 0.3452 0.3109 0.2118 0.2256 0.1722 0.1397 0.2994 0.2591 0.1448 0.1456 0.2243 0.1354 0.1340 0.1031 0.1915 0.2968 0.1932 0.1372 0.5699 0.2811 0.7282 0.1485 0.1830 0.4555 0.7882 0.2232 0.7325 0.3657 0.1661 0.2428 0.2710 0.2185 0.1695
0.2834 0.1299 0.1665 0.2681 0.3993 0.2952 0.1691 0.3560 0.1465 0.1193 0.1071 0.0928 0.2442 0.2108 0.3244 1.0227 0.2890 2.2322 0.4650 0.1605 0.2183 0.2153 0.4266 0.6558 0.8485 0.1842 0.3286 0.3094 0.2183 0.2156 0.1749 0.1324 0.3086 0.2847 0.1467 0.1401 0.2273 0.1326 0.1269 0.1018 0.1823 0.3017 0.1922 0.1357 0.5687 0.2819 0.7298 0.1449 0.1900 0.4668 0.8022 0.2153 0.7647 0.3586 0.1520 0.2385 0.2660 0.2122 0.1626
0.2805 0.1315 0.1646 0.2615 0.3590 0.2836 0.1533 0.3402 0.1435 0.1163 0.1087 0.0923 0.2380 0.2051 0.3019 0.9526 0.2834 2.0589 0.4632 0.1649 0.2043 0.2208 0.4064 0.6944 0.8357 0.1885 0.3222 0.2958 0.2165 0.2082 0.1723 0.1327 0.2927 0.2629 0.1386 0.1342 0.2046 0.1263 0.1295 0.1001 0.1813 0.2845 0.1847 0.1342 0.5317 0.2871 0.7081 0.1431 0.1851 0.4912 0.7969 0.2417 0.7359 0.3702 0.1564 0.2326 0.2609 0.2186 0.1606
0.2823 0.1286 0.1694 0.2527 0.3453 0.2806 0.1410 0.3291 0.1419 0.1184 0.1058 0.0899 0.2442 0.1982 0.2933 0.9330 0.2778 2.0788 0.4581 0.1586 0.2071 0.2236 0.3993 0.7243 0.8404 0.1907 0.3344 0.3009 0.2155 0.2080 0.1776 0.1305 0.2932 0.2537 0.1398 0.1328 0.2030 0.1257 0.1253 0.0980 0.1833 0.2929 0.1792 0.1275 0.5059 0.2880 0.7273 0.1417 0.1778 0.4763 0.7823 0.2340 0.7166 0.3740 0.1625 0.2314 0.2579 0.2133 0.1580
0.2778 0.1288 0.1609 0.2501 0.3502 0.2790 0.1448 0.3155 0.1352 0.1157 0.1029 0.0879 0.2250 0.2005 0.2951 0.9268 0.2674 2.0558 0.4453 0.1537 0.2064 0.2304 0.4224 0.6691 0.8014 0.1770 0.3322 0.2836 0.2102 0.2021 0.1735 0.1271 0.2863 0.2476 0.1308 0.1296 0.2085 0.1254 0.1207 0.0960 0.1716 0.2771 0.1787 0.1244 0.5015 0.2664 0.7114 0.1362 0.1754 0.4392 0.7910 0.2303 0.7388 0.3591 0.1544 0.2254 0.2443 0.2085 0.1530
0.2622 0.1181 0.1590 0.2386 0.3749 0.2731 0.1337 0.3159 0.1330 0.1113 0.1019 0.0853 0.2222 0.1903 0.2840 0.8960 0.2640 1.9347 0.4225 0.1469 0.2096 0.2330 0.3989 0.6136 0.8187 0.1762 0.3185 0.2651 0.2053 0.2003 0.1672 0.1267 0.2904 0.2501 0.1298 0.1258 0.2092 0.1212 0.1229 0.0939 0.1641 0.2663 0.1722 0.1255 0.5040 0.2641 0.6653 0.1433 0.1724 0.4243 0.7118 0.2316 0.7345 0.3249 0.1435 0.2151 0.2292 0.2012 0.1492
0.2707 0.1176 0.1528 0.2374 0.3472 0.2696 0.1352 0.3256 0.1407 0.1081 0.1024 0.0860 0.2313 0.1867 0.2886 0.9267 0.2719 1.9896 0.4003 0.1445 0.1930 0.2237 0.3803 0.7156 0.7859 0.1676 0.3357 0.2587 0.2065 0.1964 0.1550 0.1242 0.2807 0.2428 0.1247 0.1266 0.2095 0.1164 0.1181 0.0921 0.1736 0.2682 0.1673 0.1199 0.5163 0.2670 0.6623 0.1386 0.1694 0.4588 0.7475 0.2255 0.7277 0.3465 0.1494 0.2118 0.2221 0.1984 0.1451
0.2527 0.1183 0.1463 0.2371 0.3511 0.2621 0.1467 0.3085 0.1532 0.1067 0.0988 0.0815 0.2187 0.1830 0.2792 0.8661 0.2536 1.8820 0.3973 0.1460 0.1904 0.2119 0.3747 0.5940 0.7760 0.1602 0.3007 0.2483 0.2071 0.1864 0.1493 0.1132 0.2876 0.2442 0.1211 0.1247 0.2201 0.1181 0.1153 0.0919 0.1703 0.2578 0.1636 0.1189 0.4792 0.2471 0.6433 0.1327 0.1709 0.4249 0.7299 0.1992 0.6622 0.3246 0.1435 0.2073 0.2224 0.1944 0.1399
0.2449 0.1112 0.1483 0.2309 0.3142 0.2588 0.1417 0.3140 0.1437 0.1011 0.0927 0.0779 0.2169 0.1787 0.2749 0.8837 0.2592 1.9581 0.3953 0.1411 0.1878 0.1977 0.3669 0.5764 0.7277 0.1650 0.2905 0.2602 0.1891 0.1834 0.1508 0.1133 0.2713 0.2486 0.1186 0.1200 0.1922 0.1124 0.1091 0.0851 0.1626 0.2520 0.1589 0.1156 0.4858 0.2477 0.6588 0.1275 0.1649 0.3931 0.6583 0.2006 0.6570 0.3352 0.1340 0.2124 0.2379 0.1856 0.1412
0.2489 0.1099 0.1481 0.2278 0.3381 0.2499 0.1404 0.3077 0.1407 0.1009 0.0944 0.0804 0.2075 0.1737 0.2605 0.8273 0.2534 1.7907 0.3761 0.1358 0.1805 0.1980 0.3669 0.5778 0.7225 0.1684 0.3007 0.2542 0.1966 0.1855 0.1476 0.1097 0.2753 0.2290 0.1238 0.1186 0.1944 0.1142 0.1073 0.0874 0.1605 0.2444 0.1580 0.1152 0.4575 0.2415 0.6097 0.1296 0.1638 0.4010 0.6857 0.2003 0.6410 0.3323 0.1373 0.2032 0.2235 0.1870 0.1352
0.2350 0.1097 0.1444 0.2142 0.2772 0.2551 0.1243 0.2928 0.1294 0.0983 0.0900 0.0761 0.2004 0.1678 0.2653 0.8639 0.2452 1.8815 0.3760 0.1282 0.1814 0.1983 0.3678 0.6294 0.7061 0.1773 0.2841 0.2453 0.1862 0.1697 0.1450 0.1125 0.2454 0.2166 0.1188 0.1155 0.1803 0.1096 0.1006 0.0840 0.1524 0.2348 0.1565 0.1135 0.4696 0.2384 0.6215 0.1234 0.1667 0.4206 0.6860 0.1979 0.6453 0.3219 0.1313 0.2018 0.2226 0.1849 0.1309
0.2354 0.1057 0.1400 0.2164 0.2799 0.2386 0.1264 0.2908 0.1232 0.0943 0.0887 0.0766 0.1983 0.1647 0.2580 0.8365 0.2235 1.8587 0.3873 0.1272 0.1760 0.1892 0.3453 0.6117 0.7020 0.1715 0.2833 0.2411 0.1801 0.1724 0.1404 0.1059 0.2427 0.2095 0.1143 0.1133 0.1842 0.1051 0.0995 0.0840 0.1522 0.2365 0.1524 0.1084 0.4462 0.2285 0.5886 0.1196 0.1596 0.4219 0.6758 0.1858 0.6450 0.3166 0.1313 0.2025 0.2207 0.1797 0.1287
0.2287 0.1050 0.1429 0.2229 0.3147 0.2295 0.1236 0.3108 0.1215 0.0931 0.0875 0.0735 0.1965 0.1607 0.2398 0.7572 0.2171 1.6542 0.3573 0.1301 0.1749 0.1740 0.3235 0.5219 0.7212 0.1651 0.2574 0.2334 0.1750 0.1694 0.1396 0.1094 0.2575 0.2189 0.1135 0.1100 0.1831 0.1054 0.1014 0.0812 0.1495 0.2273 0.1448 0.1079 0.4169 0.2232 0.5669 0.1124 0.1502 0.3570 0.6618 0.1976 0.5742 0.2941 0.1339 0.2017 0.2072 0.1836 0.1334
0.2221 0.0999 0.1335 0.2001 0.3169 0.2381 0.1197 0.2854 0.1195 0.0930 0.0811 0.0688 0.1951 0.1551 0.2300 0.6988 0.2209 1.5380 0.3446 0.1215 0.1638 0.1780 0.3192 0.5584 0.6719 0.1478 0.2659 0.2331 0.1633 0.1632 0.1384 0.1061 0.2386 0.2147 0.1128 0.1088 0.1882 0.1027 0.0960 0.0760 0.1393 0.2175 0.1359 0.1024 0.3933 0.2132 0.5334 0.1132 0.1487 0.3718 0.6405 0.1809 0.5720 0.2833 0.1220 0.1895 0.2026 0.1694 0.1274
0.2271 0.0972 0.1293 0.2053 0.2969 0.2184 0.1176 0.2690 0.1264 0.0903 0.0806 0.0688 0.1905 0.1499 0.2253 0.7033 0.2068 1.5684 0.3326 0.1220 0.1551 0.1693 0.3256 0.5775 0.6221 0.1373 0.2634 0.2246 0.1686 0.1591 0.1368 0.1006 0.2361 0.2114 0.1113 0.1013 0.1935 0.0962 0.0981 0.0760 0.1412 0.2122 0.1356 0.0976 0.3919 0.2146 0.5182 0.1051 0.1395 0.3827 0.6143 0.1775 0.5765 0.2824 0.1212 0.1761 0.1962 0.1648 0.1195
0.2247 0.0929 0.1341 0.1979 0.2649 0.2180 0.1203 0.2731 0.1248 0.0891 0.0783 0.0664 0.1897 0.1501 0.2193 0.6669 0.1993 1.4807 0.3281 0.1188 0.1560 0.1661 0.2943 0.4775 0.6327 0.1271 0.2353 0.2172 0.1642 0.1614 0.1257 0.0962 0.2254 0.2145 0.1185 0.0987 0.1669 0.0939 0.0945 0.0724 0.1402 0.2177 0.1341 0.0962 0.3637 0.2014 0.5267 0.1055 0.1299 0.3405 0.6066 0.1590 0.4941 0.2478 0.1162 0.1715 0.1848 0.1606 0.1165
0.2353 0.0922 0.1425 0.1984 0.2525 0.2198 0.1143 0.2725 0.1202 0.0835 0.0768 0.0629 0.2000 0.1441 0.2114 0.6488 0.1913 1.4392 0.3036 0.1171 0.1529 0.1635 0.2776 0.4884 0.6392 0.1190 0.2318 0.2135 0.1659 0.1684 0.1319 0.0975 0.2272 0.2065 0.1142 0.0963 0.1641 0.0896 0.0910 0.0731 0.1383 0.2114 0.1274 0.0922 0.3625 0.2024 0.4810 0.1030 0.1299 0.3193 0.5901 0.1612 0.5027 0.2581 0.1149 0.1600 0.1884 0.1601 0.1147
0.2167 0.0909 0.1423 0.1955 0.2411 0.2014 0.1120 0.2471 0.1115 0.0814 0.0769 0.0619 0.1751 0.1427 0.2078 0.6498 0.1900 1.4386 0.3240 0.1134 0.1474 0.1809 0.2870 0.5305 0.6174 0.1188 0.2524 0.2003 0.1580 0.1675 0.1262 0.0925 0.2253 0.1979 0.1107 0.0911 0.1458 0.0899 0.0918 0.0709 0.1288 0.1985 0.1271 0.0920 0.3545 0.1979 0.4970 0.1049 0.1280 0.3300 0.5918 0.1724 0.5570 0.2678 0.1157 0.1568 0.1917 0.1592 0.1149
0.2195 0.0890 0.1458 0.1901 0.2602 0.2042 0.1015 0.2614 0.1114 0.0804 0.0711 0.0603 0.1877 0.1334 0.2024 0.6112 0.1826 1.3798 0.2925 0.1048 0.1439 0.1730 0.2721 0.4920 0.5891 0.1205 0.2328 0.2153 0.1573 0.1626 0.1276 0.0872 0.2398 0.1920 0.1047 0.0939 0.1557 0.0851 0.0847 0.0668 0.1358 0.2006 0.1193 0.0903 0.3397 0.1934 0.4582 0.0980 0.1235 0.3264 0.5473 0.1654 0.5053 0.2646 0.1093 0.1629 0.1919 0.1483 0.1108
0.2051 0.0829 0.1246 0.1715 0.2634 0.1917 0.1003 0.2371 0.0945 0.0789 0.0696 0.0591 0.1634 0.1275 0.1974 0.5967 0.1672 1.3031 0.2801 0.1022 0.1378 0.1705 0.2792 0.5528 0.5538 0.1147 0.2363 0.1987 0.1441 0.1527 0.1213 0.0861 0.2209 0.1811 0.0945 0.0893 0.1527 0.0826 0.0827 0.0643 0.1205 0.1834 0.1168 0.0852 0.3218 0.1836 0.4310 0.0962 0.1180 0.3306 0.5240 0.1623 0.5174 0.2640 0.1023 0.1505 0.1732 0.1389 0.1070
0.2175 0.0789 0.1138 0.1761 0.2585 0.1863 0.1012 0.2311 0.0954 0.0745 0.0666 0.0590 0.1542 0.1238 0.1889 0.5698 0.1684 1.2416 0.2823 0.1026 0.1277 0.1550 0.2560 0.4642 0.5465 0.1061 0.2318 0.2009 0.1447 0.1485 0.1222 0.0829 0.2098 0.1789 0.0943 0.0881 0.1512 0.0834 0.0807 0.0630 0.1183 0.1802 0.1114 0.0818 0.3114 0.1783 0.4400 0.0900 0.1161 0.2878 0.5043 0.1443 0.4721 0.2335 0.1013 0.1465 0.1711 0.1369 0.1001
0.2151 0.0794 0.1111 0.1774 0.2489 0.1908 0.0976 0.2288 0.0939 0.0731 0.0650 0.0546 0.1514 0.1150 0.1886 0.5805 0.1591 1.2523 0.2616 0.0989 0.1364 0.1408 0.2481 0.4654 0.5722 0.1047 0.2191 0.1947 0.1395 0.1509 0.1152 0.0818 0.2061 0.1683 0.0932 0.0860 0.1566 0.0794 0.0783 0.0591 0.1129 0.1687 0.1058 0.0795 0.3194 0.1723 0.3933 0.0900 0.1080 0.3051 0.5142 0.1460 0.4714 0.2324 0.0983 0.1455 0.1688 0.1353 0.1007
0.2029 0.0765 0.1029 0.1797 0.2518 0.1864 0.0955 0.2218 0.0907 0.0681 0.0633 0.0548 0.1505 0.1188 0.1754 0.5315 0.1505 1.1528 0.2449 0.0926 0.1266 0.1412 0.2429 0.4506 0.5328 0.1025 0.2045 0.1905 0.1324 0.1347 0.1178 0.0820 0.2028 0.1780 0.0929 0.0829 0.1469 0.0765 0.0731 0.0568 0.1113 0.1729 0.1095 0.0776 0.2963 0.1676 0.3765 0.0854 0.1061 0.2893 0.5043 0.1467 0.4358 0.2154 0.0967 0.1393 0.1597 0.1335 0.0973
0.1962 0.0773 0.1087 0.1698 0.2440 0.1729 0.0965 0.2183 0.0938 0.0703 0.0630 0.0522 0.1406 0.1112 0.1687 0.5143 0.1503 1.0963 0.2320 0.0910 0.1233 0.1346 0.2274 0.4182 0.5258 0.1005 0.2046 0.1915 0.1298 0.1328 0.1060 0.0781 0.1959 0.1721 0.0960 0.0799 0.1384 0.0774 0.0738 0.0569 0.1049 0.1583 0.1028 0.0757 0.2944 0.1655 0.3555 0.0881 0.1042 0.2778 0.5039 0.1564 0.4135 0.2077 0.0944 0.1365 0.1606 0.1346 0.0936
0.2042 0.0723 0.0981 0.1632 0.2144 0.1722 0.0934 0.2003 0.0857 0.0664 0.0613 0.0520 0.1429 0.1118 0.1569 0.4813 0.1424 1.0231 0.2346 0.0868 0.1180 0.1403 0.2267 0.4352 0.4847 0.0924 0.2061 0.1839 0.1316 0.1325 0.1037 0.0728 0.1842 0.1642 0.0911 0.0776 0.1225 0.0722 0.0712 0.0563 0.1063 0.1609 0.1014 0.0737 0.2662 0.1646 0.3636 0.0849 0.0994 0.2654 0.4814 0.1399 0.4072 0.2119 0.0900 0.1285 0.1518 0.1271 0.0880
0.1783 0.0696 0.0892 0.1528 0.2079 0.1605 0.0862 0.1959 0.0810 0.0636 0.0588 0.0479 0.1336 0.1060 0.1543 0.4658 0.1396 1.0445 0.2390 0.0829 0.1150 0.1302 0.2203 0.3949 0.4617 0.0986 0.1854 0.1709 0.1188 0.1141 0.1012 0.0702 0.1690 0.1600 0.0779 0.0760 0.1285 0.0685 0.0663 0.0519 0.0985 0.1479 0.0966 0.0699 0.2598 0.1519 0.3578 0.0806 0.0956 0.2676 0.4761 0.1257 0.3834 0.1954 0.0871 0.1297 0.1412 0.1191 0.0873
0.1815 0.0694 0.0857 0.1459 0.2123 0.1544 0.0821 0.1936 0.0808 0.0608 0.0554 0.0472 0.1334 0.0995 0.1539 0.4711 0.1350 0.9981 0.2095 0.0816 0.1100 0.1193 0.2047 0.3872 0.4737 0.0956 0.1774 0.1681 0.1204 0.1143 0.0956 0.0704 0.1668 0.1486 0.0738 0.0734 0.1218 0.0704 0.0641 0.0512 0.0973 0.1439 0.0915 0.0691 0.2603 0.1471 0.3257 0.0742 0.0934 0.2504 0.4415 0.1300 0.3660 0.1859 0.0834 0.1271 0.1363 0.1156 0.0863
0.1797 0.0658 0.0833 0.1507 0.2026 0.1502 0.0886 0.1889 0.0778 0.0601 0.0562 0.0446 0.1301 0.0964 0.1458 0.4439 0.1240 0.9511 0.2123 0.0811 0.1070 0.1278 0.2056 0.3582 0.4580 0.0937 0.1813 0.1642 0.1161 0.1139 0.0951 0.0693 0.1658 0.1472 0.0726 0.0711 0.1123 0.0702 0.0636 0.0527 0.0946 0.1430 0.0865 0.0623 0.2449 0.1429 0.3131 0.0738 0.0931 0.2432 0.4433 0.1296 0.3745 0.1849 0.0810 0.1187 0.1408 0.1170 0.0833
0.1751 0.0648 0.0795 0.1398 0.2011 0.1510 0.0772 0.1847 0.0740 0.0582 0.0534 0.0445 0.1228 0.0950 0.1473 0.4479 0.1239 0.9654 0.1935 0.0768 0.1039 0.1293 0.2066 0.3745 0.4375 0.0902 0.1877 0.1618 0.1088 0.1074 0.0954 0.0649 0.1562 0.1400 0.0686 0.0694 0.1154 0.0654 0.0611 0.0490 0.0897 0.1361 0.0872 0.0628 0.2552 0.1385 0.3001 0.0714 0.0867 0.2366 0.4343 0.1244 0.3923 0.1914 0.0807 0.1217 0.1349 0.1112 0.0815
0.1809 0.0622 0.0821 0.1395 0.1995 0.1437 0.0737 0.1758 0.0700 0.0559 0.0502 0.0429 0.1170 0.0916 0.1344 0.3959 0.1152 0.8534 0.1971 0.0737 0.1003 0.1217 0.2017 0.3926 0.4260 0.0886 0.1754 0.1704 0.1132 0.1130 0.0994 0.0616 0.1663 0.1362 0.0673 0.0668 0.1101 0.0604 0.0584 0.0463 0.0886 0.1325 0.0822 0.0597 0.2171 0.1324 0.2934 0.0684 0.0864 0.2316 0.4151 0.1241 0.3659 0.2014 0.0784 0.1180 0.1371 0.1072 0.0790
0.1722 0.0620 0.0794 0.1330 0.1938 0.1367 0.0697 0.1755 0.0645 0.0525 0.0496 0.0395 0.1101 0.0858 0.1291 0.3839 0.1120 0.8432 0.1981 0.0713 0.0967 0.1201 0.1958 0.3835 0.4222 0.0962 0.1689 0.1633 0.1068 0.1059 0.0938 0.0608 0.1612 0.1299 0.0615 0.0631 0.1022 0.0600 0.0567 0.0444 0.0816 0.1218 0.0786 0.0571 0.2124 0.1302 0.2773 0.0654 0.0856 0.2397 0.4014 0.1312 0.3484 0.1995 0.0774 0.1186 0.1362 0.1060 0.0776
0.1685 0.0593 0.0708 0.1303 0.1801 0.1293 0.0669 0.1738 0.0641 0.0525 0.0462 0.0386 0.1134 0.0856 0.1209 0.3548 0.1139 0.8114 0.1983 0.0706 0.0929 0.1125 0.1767 0.3455 0.4014 0.0913 0.1569 0.1568 0.1016 0.0976 0.0885 0.0600 0.1470 0.1284 0.0604 0.0598 0.0989 0.0560 0.0555 0.0426 0.0846 0.1261 0.0777 0.0555 0.1994 0.1214 0.2852 0.0633 0.0813 0.2268 0.3938 0.1186 0.3360 0.1669 0.0724 0.1149 0.1267 0.1012 0.0753
0.1629 0.0589 0.0702 0.1286 0.1752 0.1240 0.0671 0.1679 0.0663 0.0513 0.0479 0.0371 0.1119 0.0803 0.1217 0.3502 0.1054 0.7702 0.1777 0.0675 0.0936 0.1068 0.1639 0.2894 0.4049 0.0846 0.1487 0.1499 0.0974 0.0976 0.0836 0.0564 0.1403 0.1218 0.0606 0.0571 0.1045 0.0544 0.0539 0.0421 0.0848 0.1218 0.0732 0.0556 0.2004 0.1118 0.2508 0.0637 0.0785 0.1972 0.3975 0.1163 0.3171 0.1543 0.0697 0.1069 0.1164 0.1001 0.0719
0.1608 0.0562 0.0651 0.1231 0.2038 0.1234 0.0750 0.1581 0.0623 0.0502 0.0462 0.0372 0.0998 0.0770 0.1157 0.3354 0.0995 0.7293 0.1746 0.0641 0.0859 0.1020 0.1583 0.3323 0.3671 0.0766 0.1496 0.1433 0.0937 0.0937 0.0835 0.0553 0.1359 0.1259 0.0589 0.0615 0.1086 0.0622 0.0523 0.0405 0.0749 0.1137 0.0699 0.0522 0.1916 0.1146 0.2378 0.0613 0.0807 0.1905 0.4012 0.0990 0.3068 0.1640 0.0677 0.1007 0.1159 0.1015 0.0666
0.1539 0.0515 0.0635 0.1192 0.1966 0.1199 0.0777 0.1597 0.0616 0.0459 0.0439 0.0368 0.1002 0.0762 0.1160 0.3374 0.0979 0.7205 0.1667 0.0631 0.0836 0.0923 0.1616 0.3304 0.3651 0.0699 0.1435 0.1344 0.0897 0.0871 0.0800 0.0534 0.1271 0.1279 0.0598 0.0596 0.1033 0.0577 0.0492 0.0406 0.0756 0.1096 0.0689 0.0489 0.1887 0.1109 0.2369 0.0576 0.0727 0.2102 0.3646 0.0927 0.2896 0.1575 0.0643 0.0944 0.1085 0.0951 0.0662
0.1501 0.0509 0.0598 0.1251 0.1785 0.1134 0.0830 0.1558 0.0646 0.0452 0.0413 0.0324 0.0990 0.0716 0.1102 0.3279 0.0928 0.6884 0.1511 0.0593 0.0809 0.0958 0.1459 0.3146 0.3449 0.0657 0.1469 0.1318 0.0891 0.0852 0.0721 0.0513 0.1255 0.1324 0.0655 0.0565 0.0945 0.0568 0.0488 0.0366 0.0724 0.1065 0.0643 0.0480 0.1774 0.1090 0.2238 0.0540 0.0706 0.1881 0.3511 0.0896 0.2862 0.1553 0.0623 0.0923 0.1094 0.0895 0.0631
0.1439 0.0490 0.0598 0.1167 0.1784 0.1136 0.0898 0.1600 0.0615 0.0440 0.0399 0.0316 0.0882 0.0684 0.1031 0.3083 0.0886 0.6595 0.1535 0.0582 0.0764 0.0827 0.1483 0.3202 0.3382 0.0710 0.1310 0.1353 0.0816 0.0800 0.0726 0.0506 0.1194 0.1453 0.0618 0.0573 0.0848 0.0600 0.0469 0.0352 0.0679 0.0965 0.0620 0.0469 0.1683 0.1088 0.2257 0.0545 0.0659 0.1941 0.3565 0.0905 0.2510 0.1654 0.0583 0.0942 0.1114 0.0895 0.0612
0.1374 0.0480 0.0584 0.1146 0.1785 0.1088 0.0814 0.1605 0.0583 0.0418 0.0397 0.0314 0.0937 0.0642 0.1010 0.3023 0.0886 0.6661 0.1507 0.0542 0.0722 0.0865 0.1413 0.3286 0.3170 0.0643 0.1274 0.1346 0.0800 0.0798 0.0697 0.0479 0.1220 0.1423 0.0596 0.0540 0.0847 0.0574 0.0442 0.0360 0.0695 0.1000 0.0590 0.0435 0.1688 0.1050 0.2081 0.0549 0.0707 0.1992 0.3541 0.0851 0.2696 0.1501 0.0584 0.0861 0.1059 0.0890 0.0581
0.1355 0.0468 0.0550 0.1079 0.1600 0.1002 0.0633 0.1393 0.0541 0.0423 0.0400 0.0299 0.0840 0.0620 0.0934 0.2711 0.0803 0.5902 0.1418 0.0536 0.0732 0.0837 0.1295 0.2918 0.3131 0.0610 0.1160 0.1255 0.0760 0.0791 0.0666 0.0482 0.1070 0.1149 0.0502 0.0492 0.0808 0.0509 0.0441 0.0339 0.0643 0.0939 0.0582 0.0432 0.1549 0.0950 0.1857 0.0537 0.0619 0.1863 0.3645 0.0779 0.2433 0.1339 0.0597 0.0815 0.0971 0.0910 0.0583
0.1323 0.0433 0.0554 0.0988 0.1490 0.0996 0.0516 0.1243 0.0510 0.0398 0.0374 0.0303 0.0785 0.0631 0.0908 0.2735 0.0823 0.6163 0.1460 0.0524 0.0694 0.0848 0.1357 0.3028 0.3111 0.0638 0.1236 0.1240 0.0726 0.0762 0.0630 0.0450 0.1058 0.1033 0.0452 0.0469 0.0784 0.0458 0.0408 0.0324 0.0611 0.0890 0.0576 0.0402 0.1543 0.0930 0.1992 0.0521 0.0636 0.1757 0.3454 0.0818 0.2586 0.1387 0.0545 0.0824 0.0958 0.0873 0.0536
0.1308 0.0441 0.0496 0.0943 0.1361 0.0916 0.0484 0.1256 0.0468 0.0389 0.0357 0.0276 0.0785 0.0596 0.0852 0.2554 0.0786 0.5657 0.1312 0.0486 0.0655 0.0731 0.1227 0.2670 0.2988 0.0601 0.1072 0.1238 0.0742 0.0726 0.0613 0.0435 0.1004 0.0880 0.0431 0.0424 0.0780 0.0404 0.0392 0.0309 0.0586 0.0878 0.0543 0.0384 0.1426 0.0843 0.1887 0.0505 0.0611 0.1696 0.3440 0.0748 0.2210 0.1265 0.0524 0.0813 0.0904 0.0858 0.0517
0.1252 0.0421 0.0467 0.0926 0.1475 0.0893 0.0505 0.1210 0.0521 0.0373 0.0339 0.0260 0.0795 0.0543 0.0826 0.2448 0.0729 0.5281 0.1212 0.0467 0.0627 0.0695 0.1179 0.2612 0.2923 0.0536 0.1033 0.1121 0.0721 0.0662 0.0592 0.0407 0.1006 0.0939 0.0405 0.0440 0.0839 0.0395 0.0368 0.0292 0.0592 0.0834 0.0506 0.0376 0.1383 0.0816 0.1659 0.0460 0.0592 0.1713 0.3400 0.0711 0.2104 0.1139 0.0495 0.0752 0.0822 0.0842 0.0494
0.1238 0.0410 0.0425 0.0922 0.1386 0.0901 0.0473 0.1106 0.0474 0.0370 0.0345 0.0250 0.0764 0.0514 0.0809 0.2322 0.0673 0.4943 0.1140 0.0461 0.0603 0.0740 0.1186 0.2557 0.2799 0.0570 0.0984 0.1087 0.0682 0.0629 0.0553 0.0405 0.0945 0.0909 0.0413 0.0418 0.0746 0.0354 0.0358 0.0287 0.0574 0.0798 0.0479 0.0349 0.1307 0.0775 0.1516 0.0455 0.0567 0.1589 0.3552 0.0673 0.2106 0.1149 0.0507 0.0732 0.0805 0.0876 0.0479
0.1272 0.0398 0.0437 0.0912 0.1195 0.0877 0.0443 0.1060 0.0429 0.0341 0.0335 0.0245 0.0739 0.0511 0.0775 0.2241 0.0668 0.4659 0.1203 0.0422 0.0608 0.0699 0.1185 0.2517 0.2842 0.0525 0.0980 0.1095 0.0679 0.0645 0.0563 0.0382 0.0891 0.0863 0.0408 0.0403 0.0646 0.0333 0.0343 0.0282 0.0544 0.0799 0.0460 0.0335 0.1243 0.0805 0.1561 0.0449 0.0561 0.1493 0.3443 0.0632 0.2035 0.1168 0.0487 0.0728 0.0828 0.0824 0.0462
0.1155 0.0392 0.0427 0.0823 0.1128 0.0786 0.0441 0.0965 0.0388 0.0350 0.0331 0.0232 0.0644 0.0463 0.0730 0.2168 0.0661 0.4623 0.1123 0.0417 0.0559 0.0633 0.1102 0.2122 0.2648 0.0569 0.0927 0.1058 0.0612 0.0631 0.0526 0.0367 0.0847 0.0825 0.0377 0.0371 0.0621 0.0327 0.0340 0.0261 0.0476 0.0683 0.0438 0.0318 0.1239 0.0757 0.1475 0.0453 0.0522 0.1371 0.3754 0.0624 0.1888 0.1093 0.0476 0.0715 0.0805 0.0873 0.0457
0.1108 0.0381 0.0394 0.0789 0.1058 0.0789 0.0414 0.0925 0.0372 0.0344 0.0329 0.0223 0.0594 0.0469 0.0701 0.2049 0.0622 0.4451 0.1091 0.0403 0.0524 0.0608 0.1064 0.2347 0.2580 0.0542 0.0962 0.1006 0.0582 0.0565 0.0498 0.0351 0.0781 0.0781 0.0371 0.0369 0.0651 0.0317 0.0327 0.0259 0.0447 0.0657 0.0430 0.0308 0.1148 0.0743 0.1475 0.0438 0.0498 0.1369 0.3918 0.0647 0.1874 0.1105 0.0446 0.0693 0.0753 0.0901 0.0423
0.1066 0.0397 0.0359 0.0765 0.1032 0.0748 0.0404 0.0973 0.0367 0.0352 0.0327 0.0214 0.0600 0.0450 0.0688 0.2036 0.0612 0.4312 0.1081 0.0398 0.0515 0.0595 0.1044 0.2176 0.2543 0.0540 0.0899 0.0931 0.0590 0.0520 0.0484 0.0364 0.0731 0.0756 0.0359 0.0350 0.0670 0.0313 0.0326 0.0252 0.0447 0.0658 0.0415 0.0302 0.1138 0.0666 0.1366 0.0435 0.0514 0.1333 0.4212 0.0604 0.1853 0.1002 0.0439 0.0633 0.0763 0.0981 0.0424
0.1030 0.0423 0.0334 0.0753 0.0961 0.0740 0.0410 0.0896 0.0363 0.0352 0.0338 0.0192 0.0586 0.0417 0.0665 0.1891 0.0588 0.4006 0.0992 0.0378 0.0489 0.0563 0.0987 0.1997 0.2522 0.0539 0.0799 0.0933 0.0576 0.0503 0.0446 0.0355 0.0722 0.0735 0.0340 0.0356 0.0594 0.0317 0.0308 0.0241 0.0440 0.0619 0.0390 0.0296 0.1064 0.0632 0.1265 0.0441 0.0493 0.1233 0.4627 0.0558 0.1661 0.1007 0.0443 0.0615 0.0699 0.1033 0.0390
0.1015 0.0429 0.0331 0.0721 0.0935 0.0709 0.0382 0.0885 0.0390 0.0347 0.0335 0.0193 0.0580 0.0412 0.0600 0.1736 0.0568 0.3854 0.1032 0.0358 0.0481 0.0530 0.0869 0.1804 0.2562 0.0542 0.0779 0.0914 0.0571 0.0500 0.0437 0.0358 0.0733 0.0706 0.0338 0.0331 0.0542 0.0307 0.0302 0.0231 0.0450 0.0622 0.0382 0.0266 0.0983 0.0615 0.1219 0.0441 0.0480 0.1283 0.4719 0.0575 0.1511 0.0945 0.0442 0.0599 0.0690 0.1046 0.0379
0.0991 0.0437 0.0324 0.0711 0.0874 0.0664 0.0351 0.0813 0.0360 0.0366 0.0348 0.0175 0.0571 0.0379 0.0602 0.1776 0.0591 0.3791 0.0993 0.0354 0.0474 0.0501 0.0847 0.1970 0.2581 0.0551 0.0774 0.0891 0.0552 0.0489 0.0422 0.0352 0.0738 0.0642 0.0310 0.0312 0.0495 0.0267 0.0305 0.0222 0.0425 0.0595 0.0355 0.0252 0.0996 0.0600 0.1219 0.0464 0.0486 0.1304 0.5648 0.0537 0.1536 0.0979 0.0448 0.0585 0.0666 0.1218 0.0376
0.0953 0.0502 0.0318 0.0685 0.0874 0.0681 0.0353 0.0804 0.0367 0.0394 0.0394 0.0172 0.0577 0.0350 0.0575 0.1717 0.0591 0.3736 0.1099 0.0357 0.0434 0.0499 0.0800 0.1950 0.2706 0.0570 0.0712 0.0869 0.0548 0.0467 0.0405 0.0366 0.0760 0.0603 0.0301 0.0309 0.0490 0.0261 0.0297 0.0226 0.0432 0.0571 0.0337 0.0236 0.0940 0.0564 0.1200 0.0502 0.0535 0.1391 0.6886 0.0519 0.1394 0.0967 0.0495 0.0553 0.0647 0.1468 0.0344
0.0838 0.0523 0.0303 0.0602 0.0823 0.0667 0.0317 0.0728 0.0330 0.0422 0.0426 0.0158 0.0508 0.0348 0.0551 0.1644 0.0597 0.3529 0.1056 0.0339 0.0426 0.0489 0.0801 0.1654 0.2735 0.0613 0.0693 0.0772 0.0467 0.0424 0.0373 0.0366 0.0692 0.0577 0.0270 0.0301 0.0465 0.0259 0.0304 0.0224 0.0386 0.0522 0.0334 0.0226 0.0898 0.0526 0.1147 0.0547 0.0542 0.1240 0.7896 0.0539 0.1382 0.0833 0.0520 0.0502 0.0580 0.1689 0.0346
0.0790 0.0568 0.0283 0.0539 0.0719 0.0664 0.0305 0.0735 0.0284 0.0450 0.0454 0.0150 0.0460 0.0327 0.0509 0.1504 0.0597 0.3204 0.1058 0.0328 0.0424 0.0494 0.0768 0.1717 0.3087 0.0620 0.0650 0.0712 0.0430 0.0394 0.0350 0.0399 0.0585 0.0547 0.0263 0.0299 0.0428 0.0263 0.0305 0.0218 0.0346 0.0480 0.0319 0.0222 0.0826 0.0499 0.1088 0.0576 0.0577 0.1286 0.9228 0.0505 0.1372 0.0768 0.0550 0.0465 0.0527 0.1945 0.0326
0.0723 0.0643 0.0263 0.0492 0.0649 0.0661 0.0297 0.0646 0.0250 0.0510 0.0512 0.0145 0.0427 0.0307 0.0478 0.1369 0.0597 0.2900 0.0964 0.0317 0.0400 0.0454 0.0688 0.1735 0.3163 0.0660 0.0620 0.0646 0.0405 0.0371 0.0322 0.0408 0.0534 0.0476 0.0269 0.0295 0.0380 0.0253 0.0308 0.0222 0.0332 0.0461 0.0309 0.0197 0.0746 0.0451 0.0954 0.0641 0.0600 0.1264 1.1185 0.0462 0.1248 0.0763 0.0613 0.0431 0.0481 0.2373 0.0307
0.0678 0.0710 0.0221 0.0458 0.0624 0.0652 0.0270 0.0546 0.0220 0.0565 0.0572 0.0127 0.0374 0.0272 0.0401 0.1153 0.0591 0.2473 0.0951 0.0304 0.0369 0.0434 0.0555 0.1622 0.3406 0.0714 0.0547 0.0577 0.0350 0.0334 0.0305 0.0425 0.0482 0.0457 0.0239 0.0294 0.0353 0.0215 0.0319 0.0222 0.0286 0.0393 0.0281 0.0177 0.0631 0.0406 0.0852 0.0696 0.0616 0.1229 1.3383 0.0407 0.1019 0.0748 0.0643 0.0392 0.0425 0.2771 0.0274
0.0501 0.0785 0.0178 0.0358 0.0535 0.0624 0.0224 0.0444 0.0169 0.0614 0.0606 0.0103 0.0294 0.0235 0.0351 0.0993 0.0580 0.2076 0.0877 0.0288 0.0340 0.0352 0.0437 0.1377 0.3569 0.0744 0.0403 0.0457 0.0282 0.0255 0.0252 0.0450 0.0387 0.0367 0.0204 0.0273 0.0302 0.0183 0.0302 0.0206 0.0234 0.0327 0.0248 0.0149 0.0541 0.0340 0.0682 0.0751 0.0616 0.1202 1.5190 0.0349 0.0789 0.0647 0.0683 0.0327 0.0345 0.3127 0.0240
0.0384 0.0775 0.0132 0.0278 0.0348 0.0560 0.0170 0.0326 0.0130 0.0589 0.0606 0.0077 0.0216 0.0175 0.0258 0.0708 0.0518 0.1502 0.0780 0.0251 0.0281 0.0299 0.0339 0.1241 0.3354 0.0698 0.0278 0.0359 0.0217 0.0190 0.0181 0.0419 0.0272 0.0262 0.0163 0.0227 0.0219 0.0124 0.0274 0.0187 0.0183 0.0243 0.0197 0.0114 0.0387 0.0261 0.0524 0.0743 0.0596 0.1080 1.5562 0.0300 0.0589 0.0532 0.0665 0.0241 0.0273 0.3220 0.0185
0.0248 0.0629 0.0076 0.0171 0.0215 0.0404 0.0114 0.0199 0.0078 0.0480 0.0490 0.0045 0.0132 0.0110 0.0165 0.0440 0.0395 0.0903 0.0577 0.0177 0.0195 0.0203 0.0207 0.0958 0.2696 0.0569 0.0170 0.0214 0.0136 0.0117 0.0114 0.0329 0.0166 0.0158 0.0109 0.0164 0.0137 0.0077 0.0210 0.0136 0.0111 0.0147 0.0132 0.0069 0.0236 0.0162 0.0315 0.0599 0.0469 0.0852 1.3070 0.0202 0.0363 0.0391 0.0526 0.0161 0.0159 0.2673 0.0130
0.0113 0.0386 0.0035 0.0080 0.0093 0.0235 0.0061 0.0089 0.0039 0.0296 0.0302 0.0022 0.0064 0.0054 0.0080 0.0202 0.0227 0.0409 0.0318 0.0096 0.0108 0.0104 0.0095 0.0522 0.1672 0.0344 0.0077 0.0101 0.0064 0.0054 0.0054 0.0199 0.0077 0.0079 0.0058 0.0094 0.0053 0.0039 0.0123 0.0078 0.0057 0.0071 0.0071 0.0035 0.0108 0.0074 0.0146 0.0367 0.0281 0.0483 0.8190 0.0110 0.0172 0.0208 0.0316 0.0082 0.0072 0.1679 0.0066
0.0036 0.0154 0.0011 0.0027 0.0030 0.0091 0.0023 0.0030 0.0013 0.0116 0.0118 0.0007 0.0022 0.0018 0.0027 0.0068 0.0085 0.0132 0.0121 0.0035 0.0040 0.0038 0.0029 0.0196 0.0660 0.0134 0.0024 0.0032 0.0021 0.0018 0.0019 0.0078 0.0026 0.0029 0.0020 0.0036 0.0016 0.0014 0.0048 0.0029 0.0020 0.0024 0.0025 0.0011 0.0035 0.0025 0.0048 0.0143 0.0111 0.0184 0.3269 0.0038 0.0057 0.0078 0.0124 0.0028 0.0024 0.0668 0.0024
0.0008 0.0034 0.0003 0.0006 0.0008 0.0020 0.0006 0.0007 0.0003 0.0026 0.0027 0.0002 0.0005 0.0004 0.0006 0.0015 0.0019 0.0028 0.0027 0.0008 0.0009 0.0009 0.0006 0.0042 0.0147 0.0030 0.0005 0.0007 0.0005 0.0004 0.0004 0.0018 0.0006 0.0007 0.0005 0.0008 0.0004 0.0004 0.0011 0.0006 0.0004 0.0006 0.0006 0.0002 0.0008 0.0006 0.0011 0.0032 0.0024 0.0040 0.0727 0.0009 0.0012 0.0016 0.0028 0.0006 0.0005 0.0148 0.0005
0.0002 0.0007 0.0001 0.0001 0.0002 0.0004 0.0001 0.0002 0.0001 0.0005 0.0005 0.0000 0.0001 0.0001 0.0001 0.0003 0.0004 0.0006 0.0005 0.0001 0.0002 0.0002 0.0001 0.0009 0.0029 0.0006 0.0001 0.0002 0.0001 0.0001 0.0001 0.0003 0.0001 0.0001 0.0001 0.0002 0.0001 0.0001 0.0002 0.0001 0.0001 0.0001 0.0001 0.0001 0.0002 0.0001 0.0002 0.0006 0.0005 0.0008 0.0138 0.0002 0.0003 0.0003 0.0005 0.0001 0.0001 0.0028 0.0001
0.0001 0.0016 0.0000 0.0001 0.0001 0.0008 0.0001 0.0001 0.0001 0.0011 0.0012 0.0000 0.0001 0.0001 0.0001 0.0002 0.0008 0.0003 0.0010 0.0003 0.0003 0.0002 0.0001 0.0016 0.0065 0.0013 0.0000 0.0001 0.0001 0.0001 0.0001 0.0008 0.0001 0.0001 0.0001 0.0003 0.0000 0.0001 0.0004 0.0003 0.0001 0.0001 0.0002 0.0001 0.0001 0.0001 0.0002 0.0014 0.0011 0.0017 0.0341 0.0003 0.0001 0.0006 0.0012 0.0001 0.0001 0.0069 0.0002
0.0001 0.0029 0.0000 0.0001 0.0001 0.0015 0.0002 0.0001 0.0001 0.0021 0.0022 0.0000 0.0001 0.0001 0.0002 0.0003 0.0014 0.0002 0.0018 0.0005 0.0005 0.0004 0.0000 0.0029 0.0120 0.0024 0.0000 0.0001 0.0001 0.0001 0.0001 0.0014 0.0001 0.0001 0.0002 0.0006 0.0001 0.0001 0.0008 0.0005 0.0002 0.0002 0.0003 0.0001 0.0001 0.0002 0.0002 0.0027 0.0020 0.0030 0.0638 0.0005 0.0001 0.0010 0.0022 0.0002 0.0001 0.0129 0.0003
0.0002 0.0038 0.0000 0.0002 0.0001 0.0019 0.0003 0.0001 0.0001 0.0028 0.0029 0.0001 0.0002 0.0002 0.0002 0.0003 0.0019 0.0002 0.0023 0.0007 0.0007 0.0006 0.0000 0.0037 0.0158 0.0032 0.0000 0.0001 0.0002 0.0001 0.0001 0.0019 0.0002 0.0001 0.0002 0.0007 0.0001 0.0001 0.0011 0.0006 0.0002 0.0002 0.0004 0.0001 0.0001 0.0002 0.0003 0.0035 0.0026 0.0040 0.0842 0.0006 0.0001 0.0013 0.0030 0.0003 0.0001 0.0170 0.0004
0.0002 0.0043 0.0000 0.0002 0.0001 0.0022 0.0003 0.0001 0.0001 0.0032 0.0033 0.0001 0.0002 0.0002 0.0002 0.0003 0.0021 0.0002 0.0027 0.0008 0.0008 0.0006 0.0000 0.0042 0.0179 0.0036 0.0000 0.0001 0.0002 0.0001 0.0001 0.0021 0.0002 0.0001 0.0003 0.0008 0.0001 0.0002 0.0012 0.0007 0.0002 0.0002 0.0004 0.0001 0.0001 0.0002 0.0003 0.0040 0.0029 0.0045 0.0956 0.0007 0.0001 0.0015 0.0034 0.0003 0.0001 0.0193 0.0004
0.0002 0.0046 0.0000 0.0002 0.0001 0.0023 0.0003 0.0002 0.0001 0.0034 0.0035 0.0001 0.0002 0.0002 0.0003 0.0003 0.0022 0.0002 0.0028 0.0008 0.0008 0.0007 0.0000 0.0045 0.0189 0.0038 0.0000 0.0001 0.0002 0.0001 0.0002 0.0022 0.0002 0.0001 0.0003 0.0009 0.0001 0.0002 0.0013 0.0007 0.0003 0.0002 0.0005 0.0001 0.0001 0.0003 0.0003 0.0042 0.0031 0.0048 0.1014 0.0008 0.0001 0.0016 0.0036 0.0003 0.0001 0.0205 0.0004
0.0002 0.0047 0.0000 0.0002 0.0001 0.0024 0.0003 0.0002 0.0001 0.0035 0.0036 0.0001 0.0002 0.0002 0.0003 0.0003 0.0023 0.0002 0.0029 0.0008 0.0009 0.0007 0.0000 0.0046 0.0194 0.0039 0.0000 0.0001 0.0002 0.0001 0.0002 0.0023 0.0002 0.0002 0.0003 0.0009 0.0001 0.0002 0.0013 0.0007 0.0003 0.0002 0.0005 0.0001 0.0001 0.0003 0.0003 0.0043 0.0032 0.0049 0.1038 0.0008 0.0001 0.0016 0.0037 0.0003 0.0001 0.0210 0.0004
0.0002 0.0047 0.0000 0.0002 0.0001 0.0024 0.0003 0.0002 0.0001 0.0035 0.0036 0.0001 0.0002 0.0002 0.0003 0.0003 0.0023 0.0002 0.0029 0.0008 0.0009 0.0007 0.0000 0.0046 0.0195 0.0039 0.0000 0.0001 0.0002 0.0001 0.0002 0.0023 0.0002 0.0002 0.0003 0.0009 0.0001 0.0002 0.0013 0.0008 0.0003 0.0002 0.0005 0.0001 0.0001 0.0003 0.0003 0.0044 0.0032 0.0049 0.1041 0.0008 0.0001 0.0016 0.0037 0.0003 0.0001 0.0210 0.0004
0.0002 0.0046 0.0000 0.0002 0.0001 0.0023 0.0003 0.0002 0.0001 0.0035 0.0036 0.0001 0.0002 0.0002 0.0003 0.0003 0.0023 0.0002 0.0029 0.0008 0.0008 0.0007 0.0000 0.0045 0.0192 0.0039 0.0000 0.0001 0.0002 0.0001 0.0002 0.0023 0.0002 0.0002 0.0003 0.0009 0.0001 0.0002 0.0013 0.0007 0.0003 0.0002 0.0005 0.0001 0.0001 0.0003 0.0003 0.0043 0.0031 0.0048 0.1026 0.0008 0.0001 0.0016 0.0036 0.0003 0.0001 0.0207 0.0004
0.0002 0.0045 0.0000 0.0002 0.0001 0.0023 0.0003 0.0002 0.0001 0.0033 0.0034 0.0001 0.0002 0.0002 0.0003 0.0003 0.0022 0.0002 0.0028 0.0008 0.0008 0.0007 0.0000 0.0044 0.0185 0.0037 0.0000 0.0001 0.0002 0.0001 0.0001 0.0022 0.0002 0.0001 0.0003 0.0009 0.0001 0.0002 0.0012 0.0007 0.0003 0.0002 0.0004 0.0001 0.0001 0.0002 0.0003 0.0041 0.0030 0.0047 0.0989 0.0007 0.0001 0.0015 0.0035 0.0003 0.0001 0.0200 0.0004
0.0002 0.0042 0.0000 0.0002 0.0001 0.0021 0.0003 0.0001 0.0001 0.0031 0.0032 0.0001 0.0002 0.0002 0.0002 0.0003 0.0021 0.0002 0.0026 0.0007 0.0008 0.0006 0.0000 0.0041 0.0173 0.0035 0.0000 0.0001 0.0002 0.0001 0.0001 0.0020 0.0002 0.0001 0.0003 0.0008 0.0001 0.0002 0.0012 0.0007 0.0002 0.0002 0.0004 0.0001 0.0001 0.0002 0.0003 0.0039 0.0028 0.0044 0.0926 0.0007 0.0001 0.0014 0.0033 0.0003 0.0001 0.0187 0.0004
0.0002 0.0037 0.0000 0.0002 0.0001 0.0019 0.0003 0.0001 0.0001 0.0028 0.0028 0.0000 0.0002 0.0002 0.0002 0.0003 0.0018 0.0002 0.0023 0.0007 0.0007 0.0006 0.0000 0.0036 0.0153 0.0031 0.0000 0.0001 0.0002 0.0001 0.0001 0.0018 0.0002 0.0001 0.0002 0.0007 0.0001 0.0001 0.0010 0.0006 0.0002 0.0002 0.0004 0.0001 0.0001 0.0002 0.0003 0.0034 0.0025 0.0039 0.0818 0.0006 0.0001 0.0013 0.0029 0.0003 0.0001 0.0165 0.0003
0.0001 0.0029 0.0000 0.0001 0.0001 0.0015 0.0002 0.0001 0.0001 0.0022 0.0022 0.0000 0.0001 0.0001 0.0002 0.0003 0.0014 0.0002 0.0018 0.0005 0.0005 0.0004 0.0000 0.0029 0.0121 0.0024 0.0000 0.0001 0.0001 0.0001 0.0001 0.0014 0.0001 0.0001 0.0002 0.0006 0.0001 0.0001 0.0008 0.0005 0.0002 0.0002 0.0003 0.0001 0.0001 0.0002 0.0002 0.0027 0.0020 0.0031 0.0645 0.0005 0.0001 0.0010 0.0023 0.0002 0.0001 0.0130 0.0003
0.0001 0.0018 0.0000 0.0001 0.0001 0.0009 0.0001 0.0001 0.0001 0.0013 0.0014 0.0000 0.0001 0.0001 0.0001 0.0002 0.0009 0.0002 0.0011 0.0003 0.0003 0.0003 0.0000 0.0018 0.0074 0.0015 0.0000 0.0001 0.0001 0.0001 0.0001 0.0009 0.0001 0.0001 0.0001 0.0003 0.0000 0.0001 0.0005 0.0003 0.0001 0.0001 0.0002 0.0001 0.0001 0.0001 0.0002 0.0017 0.0012 0.0019 0.0391 0.0003 0.0001 0.0006 0.0014 0.0002 0.0000 0.0079 0.0002
0.0001 0.0007 0.0000 0.0001 0.0001 0.0004 0.0001 0.0001 0.0000 0.0005 0.0005 0.0000 0.0001 0.0001 0.0001 0.0002 0.0004 0.0003 0.0005 0.0001 0.0002 0.0001 0.0001 0.0007 0.0029 0.0006 0.0001 0.0001 0.0001 0.0000 0.0000 0.0003 0.0001 0.0001 0.0001 0.0001 0.0000 0.0000 0.0002 0.0001 0.0001 0.0001 0.0001 0.0000 0.0001 0.0001 0.0001 0.0006 0.0005 0.0007 0.0147 0.0001 0.0001 0.0003 0.0005 0.0001 0.0000 0.0030 0.0001
0.0002 0.0014 0.0001 0.0001 0.0001 0.0007 0.0001 0.0001 0.0001 0.0010 0.0011 0.0000 0.0001 0.0001 0.0002 0.0003 0.0007 0.0006 0.0010 0.0003 0.0003 0.0003 0.0001 0.0015 0.0059 0.0012 0.0001 0.0001 0.0001 0.0001 0.0001 0.0007 0.0001 0.0001 0.0001 0.0003 0.0001 0.0001 0.0004 0.0002 0.0001 0.0001 0.0002 0.0001 0.0002 0.0002 0.0002 0.0013 0.0010 0.0015 0.0304 0.0003 0.0002 0.0006 0.0011 0.0002 0.0001 0.0062 0.0002
0.0007 0.0085 0.0002 0.0006 0.0005 0.0044 0.0007 0.0006 0.0003 0.0063 0.0065 0.0002 0.0005 0.0005 0.0007 0.0013 0.0043 0.0019 0.0054 0.0016 0.0017 0.0014 0.0004 0.0088 0.0354 0.0072 0.0003 0.0006 0.0005 0.0004 0.0004 0.0042 0.0007 0.0005 0.0006 0.0017 0.0003 0.0004 0.0024 0.0014 0.0006 0.0006 0.0010 0.0003 0.0006 0.0007 0.0010 0.0079 0.0058 0.0091 0.1857 0.0015 0.0007 0.0032 0.0067 0.0008 0.0003 0.0377 0.0009
0.0022 0.0273 0.0006 0.0019 0.0017 0.0138 0.0023 0.0019 0.0009 0.0205 0.0210 0.0005 0.0017 0.0017 0.0023 0.0043 0.0136 0.0064 0.0176 0.0051 0.0054 0.0046 0.0013 0.0284 0.1143 0.0231 0.0012 0.0019 0.0017 0.0011 0.0014 0.0135 0.0020 0.0017 0.0020 0.0053 0.0009 0.0013 0.0078 0.0046 0.0020 0.0020 0.0031 0.0011 0.0020 0.0022 0.0032 0.0253 0.0187 0.0293 0.5993 0.0050 0.0024 0.0104 0.0214 0.0025 0.0011 0.1217 0.0029
0.0052 0.0578 0.0015 0.0043 0.0043 0.0299 0.0053 0.0049 0.0020 0.0431 0.0441 0.0012 0.0039 0.0037 0.0052 0.0107 0.0295 0.0177 0.0380 0.0108 0.0117 0.0102 0.0036 0.0610 0.2434 0.0493 0.0031 0.0046 0.0039 0.0027 0.0033 0.0286 0.0047 0.0043 0.0045 0.0116 0.0023 0.0031 0.0165 0.0095 0.0043 0.0045 0.0068 0.0023 0.0051 0.0051 0.0081 0.0536 0.0400 0.0626 1.2629 0.0109 0.0067 0.0225 0.0454 0.0057 0.0029 0.2560 0.0063
0.0095 0.0849 0.0026 0.0080 0.0079 0.0450 0.0086 0.0090 0.0036 0.0638 0.0655 0.0020 0.0068 0.0063 0.0091 0.0205 0.0438 0.0355 0.0576 0.0167 0.0178 0.0160 0.0073 0.0934 0.3545 0.0730 0.0063 0.0083 0.0068 0.0050 0.0057 0.0418 0.0083 0.0078 0.0071 0.0176 0.0042 0.0051 0.0246 0.0146 0.0071 0.0079 0.0105 0.0039 0.0101 0.0084 0.0142 0.0788 0.0586 0.0940 1.8538 0.0172 0.0141 0.0352 0.0672 0.0093 0.0056 0.3767 0.0097
0.0133 0.0980 0.0038 0.0104 0.0110 0.0528 0.0106 0.0126 0.0050 0.0741 0.0758 0.0028 0.0090 0.0082 0.0120 0.0281 0.0524 0.0517 0.0687 0.0199 0.0213 0.0190 0.0109 0.1109 0.4142 0.0839 0.0090 0.0122 0.0091 0.0065 0.0076 0.0491 0.0105 0.0104 0.0088 0.0207 0.0063 0.0066 0.0289 0.0174 0.0091 0.0105 0.0131 0.0051 0.0142 0.0113 0.0198 0.0914 0.0690 0.1117 2.1343 0.0208 0.0192 0.0417 0.0777 0.0116 0.0082 0.4331 0.0119
0.0148 0.0947 0.0047 0.0122 0.0145 0.0521 0.0108 0.0134 0.0054 0.0715 0.0735 0.0032 0.0107 0.0089 0.0136 0.0346 0.0517 0.0653 0.0687 0.0199 0.0220 0.0197 0.0129 0.1094 0.4007 0.0823 0.0114 0.0138 0.0102 0.0075 0.0086 0.0474 0.0130 0.0114 0.0094 0.0208 0.0074 0.0070 0.0284 0.0171 0.0100 0.0120 0.0135 0.0054 0.0176 0.0130 0.0230 0.0890 0.0666 0.1094 2.0516 0.0217 0.0236 0.0418 0.0760 0.0128 0.0092 0.4167 0.0127
0.0171 0.0849 0.0054 0.0121 0.0157 0.0491 0.0109 0.0146 0.0058 0.0632 0.0650 0.0032 0.0104 0.0092 0.0145 0.0378 0.0477 0.0722 0.0641 0.0188 0.0201 0.0187 0.0148 0.1000 0.3582 0.0742 0.0128 0.0146 0.0105 0.0085 0.0086 0.0428 0.0134 0.0124 0.0097 0.0197 0.0085 0.0071 0.0252 0.0154 0.0096 0.0117 0.0129 0.0056 0.0191 0.0130 0.0253 0.0789 0.0599 0.0989 1.8102 0.0207 0.0266 0.0393 0.0680 0.0130 0.0097 0.3684 0.0123
0.0160 0.0694 0.0055 0.0125 0.0162 0.0413 0.0098 0.0139 0.0058 0.0525 0.0537 0.0032 0.0105 0.0086 0.0135 0.0376 0.0411 0.0734 0.0556 0.0163 0.0178 0.0171 0.0153 0.0905 0.2995 0.0617 0.0131 0.0153 0.0101 0.0082 0.0085 0.0356 0.0135 0.0116 0.0090 0.0169 0.0086 0.0063 0.0214 0.0132 0.0091 0.0115 0.0113 0.0052 0.0191 0.0128 0.0255 0.0660 0.0508 0.0862 1.4933 0.0188 0.0268 0.0358 0.0565 0.0125 0.0104 0.3053 0.0107
0.0157 0.0585 0.0061 0.0114 0.0148 0.0359 0.0082 0.0133 0.0050 0.0430 0.0447 0.0031 0.0100 0.0082 0.0129 0.0366 0.0347 0.0730 0.0494 0.0142 0.0153 0.0162 0.0157 0.0795 0.2521 0.0508 0.0124 0.0158 0.0095 0.0078 0.0084 0.0306 0.0127 0.0106 0.0083 0.0141 0.0080 0.0054 0.0181 0.0113 0.0082 0.0112 0.0104 0.0048 0.0186 0.0120 0.0247 0.0546 0.0431 0.0741 1.2273 0.0157 0.0258 0.0323 0.0466 0.0119 0.0104 0.2500 0.0100
0.0155 0.0473 0.0057 0.0115 0.0147 0.0302 0.0081 0.0132 0.0050 0.0358 0.0369 0.0029 0.0093 0.0076 0.0121 0.0343 0.0287 0.0696 0.0424 0.0122 0.0137 0.0147 0.0158 0.0744 0.2072 0.0432 0.0118 0.0150 0.0089 0.0077 0.0081 0.0250 0.0122 0.0108 0.0081 0.0121 0.0077 0.0050 0.0154 0.0097 0.0079 0.0103 0.0094 0.0045 0.0180 0.0116 0.0225 0.0448 0.0350 0.0640 0.9932 0.0149 0.0269 0.0299 0.0385 0.0110 0.0101 0.2024 0.0089
0.0146 0.0386 0.0054 0.0106 0.0142 0.0253 0.0064 0.0122 0.0048 0.0295 0.0297 0.0027 0.0093 0.0071 0.0112 0.0322 0.0250 0.0674 0.0368 0.0103 0.0120 0.0135 0.0148 0.0623 0.1711 0.0351 0.0116 0.0134 0.0085 0.0073 0.0074 0.0208 0.0112 0.0098 0.0065 0.0102 0.0073 0.0045 0.0130 0.0083 0.0073 0.0099 0.0082 0.0043 0.0173 0.0103 0.0214 0.0364 0.0293 0.0530 0.7940 0.0127 0.0255 0.0259 0.0316 0.0099 0.0094 0.1616 0.0080
0.0137 0.0325 0.0047 0.0097 0.0137 0.0221 0.0063 0.0120 0.0044 0.0243 0.0249 0.0025 0.0083 0.0064 0.0110 0.0321 0.0214 0.0668 0.0319 0.0090 0.0102 0.0115 0.0138 0.0478 0.1437 0.0292 0.0115 0.0128 0.0078 0.0069 0.0068 0.0174 0.0100 0.0097 0.0059 0.0090 0.0073 0.0041 0.0109 0.0071 0.0066 0.0088 0.0075 0.0041 0.0170 0.0096 0.0198 0.0306 0.0249 0.0442 0.6610 0.0112 0.0241 0.0213 0.0269 0.0089 0.0088 0.1354 0.0069
0.0126 0.0266 0.0045 0.0093 0.0132 0.0188 0.0061 0.0110 0.0043 0.0202 0.0204 0.0023 0.0076 0.0056 0.0100 0.0302 0.0185 0.0627 0.0280 0.0078 0.0092 0.0098 0.0122 0.0453 0.1216 0.0244 0.0116 0.0114 0.0071 0.0064 0.0062 0.0148 0.0097 0.0092 0.0051 0.0078 0.0068 0.0039 0.0093 0.0062 0.0058 0.0078 0.0063 0.0037 0.0157 0.0091 0.0198 0.0253 0.0206 0.0386 0.5401 0.0095 0.0229 0.0191 0.0222 0.0081 0.0084 0.1110 0.0064
0.0125 0.0223 0.0042 0.0084 0.0115 0.0164 0.0060 0.0108 0.0040 0.0171 0.0173 0.0022 0.0073 0.0056 0.0095 0.0293 0.0164 0.0620 0.0243 0.0072 0.0085 0.0087 0.0122 0.0414 0.1040 0.0209 0.0114 0.0112 0.0068 0.0062 0.0061 0.0127 0.0089 0.0090 0.0048 0.0070 0.0065 0.0037 0.0080 0.0054 0.0055 0.0078 0.0061 0.0033 0.0152 0.0091 0.0189 0.0215 0.0177 0.0351 0.4494 0.0094 0.0223 0.0183 0.0188 0.0078 0.0083 0.0922 0.0059
0.0112 0.0187 0.0042 0.0083 0.0105 0.0144 0.0053 0.0109 0.0041 0.0147 0.0149 0.0020 0.0075 0.0051 0.0090 0.0277 0.0148 0.0591 0.0217 0.0062 0.0075 0.0078 0.0118 0.0381 0.0885 0.0182 0.0107 0.0105 0.0067 0.0056 0.0059 0.0110 0.0088 0.0083 0.0040 0.0062 0.0058 0.0036 0.0071 0.0048 0.0055 0.0075 0.0055 0.0032 0.0145 0.0083 0.0183 0.0185 0.0153 0.0305 0.3791 0.0088 0.0213 0.0174 0.0158 0.0072 0.0080 0.0776 0.0053
0.0107 0.0164 0.0038 0.0079 0.0102 0.0130 0.0048 0.0101 0.0039 0.0127 0.0127 0.0020 0.0069 0.0049 0.0083 0.0251 0.0131 0.0539 0.0205 0.0057 0.0068 0.0073 0.0113 0.0353 0.0765 0.0159 0.0094 0.0103 0.0061 0.0053 0.0054 0.0095 0.0084 0.0078 0.0039 0.0055 0.0056 0.0033 0.0063 0.0043 0.0052 0.0073 0.0051 0.0030 0.0131 0.0079 0.0177 0.0158 0.0135 0.0273 0.3225 0.0077 0.0197 0.0158 0.0139 0.0066 0.0077 0.0663 0.0048
0.0096 0.0140 0.0038 0.0069 0.0094 0.0116 0.0040 0.0092 0.0033 0.0109 0.0111 0.0018 0.0066 0.0047 0.0082 0.0250 0.0120 0.0534 0.0184 0.0051 0.0061 0.0076 0.0110 0.0293 0.0672 0.0137 0.0090 0.0090 0.0057 0.0052 0.0050 0.0083 0.0077 0.0068 0.0036 0.0049 0.0055 0.0029 0.0056 0.0038 0.0047 0.0067 0.0047 0.0028 0.0134 0.0073 0.0164 0.0138 0.0122 0.0240 0.2738 0.0072 0.0196 0.0136 0.0118 0.0063 0.0072 0.0563 0.0045
0.0097 0.0126 0.0035 0.0066 0.0089 0.0100 0.0036 0.0092 0.0032 0.0096 0.0098 0.0017 0.0059 0.0043 0.0076 0.0241 0.0105 0.0531 0.0164 0.0047 0.0055 0.0066 0.0103 0.0276 0.0589 0.0124 0.0087 0.0090 0.0054 0.0048 0.0046 0.0072 0.0069 0.0063 0.0035 0.0043 0.0052 0.0027 0.0050 0.0035 0.0044 0.0062 0.0043 0.0026 0.0125 0.0068 0.0157 0.0121 0.0105 0.0223 0.2393 0.0067 0.0189 0.0126 0.0107 0.0061 0.0067 0.0491 0.0042
0.0088 0.0108 0.0035 0.0068 0.0095 0.0096 0.0035 0.0087 0.0030 0.0084 0.0087 0.0017 0.0059 0.0039 0.0069 0.0225 0.0096 0.0477 0.0153 0.0043 0.0049 0.0063 0.0094 0.0261 0.0520 0.0111 0.0084 0.0082 0.0052 0.0047 0.0044 0.0065 0.0070 0.0061 0.0035 0.0042 0.0052 0.0026 0.0044 0.0032 0.0043 0.0060 0.0039 0.0023 0.0116 0.0065 0.0146 0.0108 0.0093 0.0197 0.2061 0.0061 0.0176 0.0120 0.0094 0.0055 0.0063 0.0421 0.0038
0.0078 0.0095 0.0034 0.0063 0.0085 0.0083 0.0039 0.0081 0.0028 0.0073 0.0076 0.0016 0.0052 0.0037 0.0064 0.0206 0.0085 0.0433 0.0135 0.0039 0.0048 0.0057 0.0098 0.0253 0.0446 0.0101 0.0080 0.0074 0.0045 0.0042 0.0042 0.0056 0.0065 0.0062 0.0037 0.0037 0.0049 0.0025 0.0041 0.0028 0.0038 0.0052 0.0037 0.0023 0.0108 0.0061 0.0131 0.0094 0.0083 0.0182 0.1775 0.0062 0.0170 0.0116 0.0085 0.0048 0.0056 0.0372 0.0036
0.0078 0.0088 0.0032 0.0059 0.0079 0.0079 0.0037 0.0077 0.0026 0.0066 0.0067 0.0015 0.0047 0.0035 0.0061 0.0192 0.0080 0.0411 0.0129 0.0037 0.0045 0.0054 0.0086 0.0219 0.0431 0.0089 0.0077 0.0067 0.0044 0.0042 0.0040 0.0054 0.0059 0.0055 0.0035 0.0035 0.0045 0.0025 0.0037 0.0026 0.0035 0.0050 0.0035 0.0021 0.0101 0.0055 0.0128 0.0084 0.0077 0.0165 0.1588 0.0055 0.0161 0.0099 0.0078 0.0047 0.0054 0.0329 0.0034
0.0073 0.0075 0.0032 0.0053 0.0070 0.0070 0.0030 0.0071 0.0024 0.0060 0.0058 0.0013 0.0045 0.0032 0.0056 0.0183 0.0073 0.0408 0.0121 0.0034 0.0040 0.0050 0.0079 0.0205 0.0388 0.0076 0.0073 0.0064 0.0040 0.0040 0.0036 0.0045 0.0055 0.0051 0.0032 0.0032 0.0040 0.0022 0.0033 0.0023 0.0032 0.0047 0.0032 0.0019 0.0094 0.0051 0.0121 0.0075 0.0068 0.0148 0.1386 0.0049 0.0148 0.0096 0.0069 0.0043 0.0053 0.0285 0.0031
0.0067 0.0066 0.0028 0.0046 0.0061 0.0064 0.0027 0.0062 0.0022 0.0053 0.0054 0.0012 0.0040 0.0030 0.0055 0.0178 0.0069 0.0397 0.0106 0.0030 0.0036 0.0044 0.0076 0.0179 0.0340 0.0068 0.0065 0.0059 0.0036 0.0036 0.0035 0.0041 0.0049 0.0047 0.0028 0.0029 0.0037 0.0019 0.0030 0.0022 0.0029 0.0042 0.0029 0.0018 0.0094 0.0047 0.0115 0.0069 0.0062 0.0136 0.1220 0.0043 0.0140 0.0080 0.0061 0.0039 0.0045 0.0254 0.0029
0.0064 0.0061 0.0026 0.0047 0.0067 0.0063 0.0024 0.0060 0.0021 0.0048 0.0048 0.0012 0.0041 0.0029 0.0053 0.0170 0.0065 0.0366 0.0099 0.0028 0.0036 0.0042 0.0078 0.0189 0.0324 0.0066 0.0062 0.0061 0.0036 0.0032 0.0034 0.0039 0.0050 0.0045 0.0023 0.0028 0.0038 0.0017 0.0027 0.0020 0.0030 0.0043 0.0028 0.0018 0.0091 0.0046 0.0109 0.0061 0.0060 0.0137 0.1097 0.0044 0.0133 0.0087 0.0056 0.0041 0.0046 0.0227 0.0028
