Fp1 Fz F3 F7 FC5 FC1 C3 T7 CP5 CP1 Pz P3 P7 O1 Oz O2 P4 P8 CP6 CP2 FCz C4 T8 FC6 FC2 F4 F8 Fp2 AF7 AF3 Fpz F1 F5 FT7 FC3 C1 C5 CP3 CPz P1 P5 PO7 PO3 POz PO4 PO8 P6 P2 CP4 C6 C2 FC4 FT8 F6 F2 AF4 AF8 Cz AFz
24.1174 2.5902 3.5007 44.1328 130.9989 3.9946 2.2472 10.0798 4.7812 2.6704 2.4733 2.4512 6.0585 5.7963 5.2659 5.6489 1.4445 4.0561 2.2007 1.7255 2.7659 1.5882 3.1084 2.9952 2.2699 2.1148 3.5754 4.0033 18.1223 148.4384 3.7376 13.6649 73.7319 19.4397 9.5740 4.5488 87.7328 6.1868 2.2534 2.1460 2.8730 8.2266 5.5806 6.5326 6.5130 5.1323 2.6896 1.4529 1.4759 2.8278 1.1063 1.2753 3.7195 2.4300 3.5532 1.8749 2.9012 1.7979 22.7589
130.8807 28.6915 56.2604 151.5543 423.0509 23.1449 18.4580 72.3540 44.9020 18.7092 32.1025 36.6239 78.7580 77.5572 98.3778 88.3678 23.6002 57.4313 42.5798 16.0906 25.4635 22.2253 34.8068 54.3194 19.9023 24.1757 54.4538 34.5270 110.1614 588.8273 47.1332 64.2235 235.0233 90.6498 58.7371 20.0621 327.3271 44.6039 19.1080 34.6689 38.3459 81.5881 74.1302 98.1872 82.8227 73.5866 41.8049 17.8781 24.0583 52.8246 11.7750 16.9165 51.7874 41.1027 34.6885 32.1098 44.2560 17.7991 93.8807
957.9232 833.3384 1312.8219 1448.8782 1630.4661 383.2793 424.4981 920.1428 555.3829 383.9515 821.8299 727.2631 1446.3042 1728.4657 1769.6479 1757.9590 538.3222 1324.6881 655.5372 415.7892 616.0743 442.8488 848.3781 768.1066 422.8611 528.5704 782.9202 718.3209 1212.3575 1540.7339 822.4346 700.3306 3492.2566 789.0717 529.0982 316.6450 894.6161 534.3604 541.5631 717.2109 1041.9379 2023.4176 2137.3396 2334.3899 2267.1899 1702.6709 915.8333 483.2794 441.1656 936.8364 320.8202 395.3748 820.7446 616.2527 774.6588 597.1604 822.3245 461.4387 1033.2662
2029.3181 2223.0654 2388.0203 1890.3237 1566.3137 757.8392 794.7352 1985.5074 928.6603 836.5565 1558.5955 1255.7317 2246.3293 2307.6348 2005.2004 2252.7300 913.9895 2214.1184 1047.5291 958.8245 1584.6670 873.6420 2190.7893 995.5438 1048.4337 1111.4790 1402.9850 1466.0801 3036.5078 2481.9531 1593.6089 1528.4437 4685.0669 1547.1068 1072.6854 601.7784 1145.5481 958.9030 1270.0857 1257.3323 1844.7129 3390.5159 3302.0408 3545.5645 3500.2109 2655.9741 1416.1396 991.7854 881.3462 1589.3163 745.3438 777.7159 1236.7723 1111.1226 1950.8098 1144.6185 1516.1218 1011.9011 1685.0107
2334.3540 2224.2007 2297.7002 964.3683 931.0023 731.8143 694.0297 1460.8287 820.4066 856.7652 1405.4327 1005.9968 1456.1665 1472.8785 1367.8391 1516.0441 725.4381 1599.6801 847.9601 964.3821 1618.0948 889.0170 1703.8435 785.1824 1124.6447 1336.9922 1265.0701 1477.1056 2398.8838 2799.8816 1511.0796 1620.4569 2261.3843 1300.3666 981.4385 568.0160 985.9206 901.7841 1285.0598 1127.9724 1241.0720 2141.2395 2197.8435 2599.4744 2493.2500 1769.1993 968.7458 918.4011 911.9359 1157.7365 711.3706 824.7727 912.1630 1211.2046 2116.2336 1266.0953 1451.4471 949.8556 1449.6112
2007.1830 1564.7188 2063.2346 935.1113 750.8580 566.4073 470.4716 862.4227 512.8775 665.2764 1138.1024 736.2878 873.7745 897.8836 863.1491 921.6810 556.4665 997.5893 550.1448 697.6577 1194.8542 605.4161 1024.6271 586.1182 940.0173 1195.7002 928.6624 1259.1696 2085.8950 2272.6501 1179.4674 1417.7450 2117.0239 832.8265 843.5561 395.4981 618.4369 613.3771 1082.6680 914.7746 773.3719 1252.1777 1425.6034 1782.2280 1618.1359 1074.7949 648.5936 720.4933 619.0037 769.4418 494.4705 711.1422 597.3198 1019.7864 1605.1586 1065.3928 1212.4933 752.3133 1049.9006
1549.3375 1107.9464 1566.5648 609.6918 519.2302 454.1925 318.9873 536.2139 304.6837 493.8999 759.7621 492.7424 533.0620 596.4579 577.0851 611.1169 388.2055 585.2484 350.3338 494.5821 853.9564 420.5895 648.2078 416.7616 705.2444 935.0974 692.7596 948.6630 1549.9812 1677.8126 892.3338 1125.1820 1456.2769 553.7714 654.2852 292.1779 364.9607 386.4285 769.8030 611.4642 499.6583 790.3114 981.4580 1196.9414 1100.4541 694.7556 406.9210 496.6059 422.8219 485.4738 360.8415 583.0517 399.3271 809.5408 1125.9865 746.2338 930.7977 536.4327 665.5482
984.2031 762.2266 986.7101 427.1313 392.0487 345.2583 209.6794 331.0373 185.8642 310.0294 448.6637 301.7670 345.1973 393.1567 393.4911 425.8081 254.2829 394.9630 219.5780 331.1487 628.2697 291.1999 394.1103 312.2791 521.7161 657.4064 486.6762 692.7679 917.3414 1001.8223 605.2706 749.5671 899.0418 351.8986 469.8482 195.6621 240.9328 236.9906 516.3873 363.1265 311.7235 501.5382 648.0394 805.6517 747.5135 464.2128 273.6954 298.8292 269.1043 320.5903 259.4549 440.8189 273.0070 594.9324 768.9222 529.5058 680.1609 381.6590 408.4307
622.0160 527.0648 655.2569 407.2135 298.6006 268.8931 155.4349 218.7156 141.6536 196.8948 273.5800 209.8188 237.8792 278.5241 277.4872 302.6025 171.8460 273.0635 152.3369 211.0388 458.7308 197.7500 263.9330 218.8613 371.2368 435.5438 329.9849 510.5582 668.4990 611.1880 422.3683 527.9324 785.8979 229.9676 329.1094 142.2468 171.3965 169.3705 317.1953 225.0013 227.3843 343.6165 446.7770 551.8134 520.0554 318.0077 195.2979 182.6331 179.4862 217.0877 184.6604 304.8070 187.0259 403.3104 514.5571 371.2673 497.8993 265.3111 272.5717
446.2376 409.5524 481.1335 478.2150 265.9619 208.6347 119.2922 161.4198 104.9781 136.3519 190.6332 150.9810 189.7428 207.3096 208.4259 233.1416 132.3174 195.2414 111.5118 138.7327 355.5581 141.6120 192.3205 170.7013 275.6846 285.9802 250.4226 367.3170 525.5853 441.6628 294.5551 419.4964 749.1627 197.1776 249.8453 105.3089 136.9537 120.9972 206.7231 156.9925 174.5553 262.9908 324.9390 406.3052 400.9909 249.2027 147.3401 131.9842 124.1256 157.6470 133.5835 215.1497 143.5363 296.0654 368.6155 248.6098 362.9573 193.6968 202.2659
320.0978 287.9066 351.4705 315.4638 188.6540 150.3912 89.8655 120.1647 77.8001 101.9274 137.8502 108.6449 144.8667 164.0497 164.6579 191.8348 99.7632 152.7816 88.3197 106.3287 266.4335 107.2229 149.6539 123.8956 214.3964 228.6421 190.1538 266.9357 360.3069 312.8221 215.4754 285.5512 510.8109 138.4778 187.0426 82.4914 98.5839 89.7094 156.0362 114.1942 122.9501 202.2965 258.2648 319.4685 320.7171 199.7438 117.0957 96.0218 93.9642 121.6218 104.8870 168.8272 108.8953 223.3691 280.0503 187.8055 267.0101 150.4014 143.6469
235.0389 220.3006 274.8784 347.3625 170.7414 132.5949 73.6904 93.5339 62.5747 70.6051 107.1056 86.4838 119.0044 124.5805 127.9624 150.4198 83.0244 125.1400 69.0191 76.6593 207.0837 84.5628 111.5907 101.0144 163.9563 177.9449 156.7318 200.1252 336.9938 232.7510 156.8369 239.2682 532.9216 116.3038 149.9065 61.7808 82.1148 68.0849 108.3189 89.3185 98.6686 156.7727 200.9190 252.7058 255.1759 158.5727 95.6650 78.2970 72.4725 92.6356 79.9041 139.3784 89.1815 181.4400 203.8231 134.6081 210.4756 111.7401 106.4078
172.0604 168.3239 224.5524 215.7217 121.8052 105.8118 61.0010 75.8991 52.7327 60.6628 88.0164 74.3114 91.5503 108.9656 113.5559 133.1400 69.5438 102.0083 56.8920 63.8140 166.8209 69.4698 90.6468 85.2636 134.4500 143.6164 129.5696 158.1524 237.2046 182.2417 115.1460 181.6457 334.4332 88.5142 124.9748 54.5036 66.2475 58.2266 88.5875 73.9759 81.1257 130.5441 173.6794 212.3515 220.0888 132.2260 77.1381 65.0608 60.3678 74.3625 67.7903 112.6007 71.2061 151.3226 160.4271 111.0336 169.6408 92.6176 84.9337
130.9512 141.3463 181.9054 186.5636 106.4892 87.2936 52.5119 63.0925 46.3718 50.6167 71.5035 65.0202 78.2881 95.0206 97.1445 110.2816 57.6280 81.7940 47.9301 51.5773 138.6645 58.3080 74.0135 70.2288 114.1607 121.9792 104.5980 120.0473 201.9494 137.9669 86.3775 144.1991 307.3028 72.2683 105.4528 44.7868 54.4612 50.1818 71.8985 61.5273 72.6158 113.1938 149.4079 173.4183 178.5832 105.6953 63.0068 52.5560 50.8210 61.7706 55.5608 97.5889 60.4041 122.9748 136.8801 86.0914 133.0612 75.9689 64.9817
98.7745 123.2465 147.0479 163.4834 90.6048 82.1603 45.4554 53.1253 38.6807 42.7105 59.0703 54.5836 66.5202 83.4455 87.9501 99.9071 48.8918 73.0449 41.6807 45.4820 119.1339 49.8914 64.7166 58.3862 100.0199 102.1265 83.8404 100.1509 178.6986 107.5916 68.8008 129.6793 269.5945 62.2790 91.9178 39.2655 47.9753 42.4336 62.0593 49.9651 62.5282 98.1577 126.3150 148.4418 156.4240 95.4261 56.9539 43.0344 44.0883 52.3033 49.6353 84.3078 50.5500 98.8068 118.6214 70.6910 105.4898 65.8454 56.4323
74.8232 101.8664 116.3873 125.7730 72.8960 66.0901 37.7963 44.6138 32.5506 35.3901 52.7811 47.8778 57.1585 72.5347 76.0670 89.8629 44.7479 62.5582 35.6895 37.5674 99.3626 41.4880 53.7565 51.6610 85.8272 87.5373 66.9500 82.4112 130.0925 81.9696 57.6773 103.5765 195.5320 51.0251 74.3267 34.6031 41.1793 34.9407 51.6160 45.2426 52.5657 84.5192 112.1286 132.6343 142.7633 84.7076 50.4723 38.7143 36.8730 45.7913 41.2606 72.2975 43.7562 81.8252 103.3238 59.9734 85.5341 56.2899 48.5200
66.9567 95.9377 107.1523 141.8433 68.4862 62.0291 36.6761 37.1458 27.1609 32.4744 46.4159 43.0384 51.5183 67.0944 70.1842 79.7086 37.9122 54.2790 31.6647 34.1189 92.5038 37.1562 45.9758 44.1965 77.3851 71.6713 59.0945 71.8241 154.4263 75.9795 50.7493 98.2267 225.3771 45.0750 70.0465 31.7145 36.2515 32.6095 46.3586 39.1446 47.3130 77.8100 101.9443 117.5297 125.2054 74.9584 43.7280 33.8104 32.1190 39.6876 37.6219 60.3570 36.4373 69.3191 92.4487 49.2926 74.9472 50.5342 45.1929
57.1024 81.1088 88.1488 71.5679 47.8274 53.4759 29.7755 32.5818 24.4656 28.3548 42.8435 36.5328 44.6808 58.8692 63.5535 73.8437 35.3016 48.5085 28.7444 30.7302 81.2411 32.1473 40.5489 39.0857 66.9602 65.0937 49.4868 60.7741 92.0986 64.8808 43.7876 81.2785 121.0444 36.6172 60.2786 27.6787 29.2704 27.5326 41.7612 35.0901 41.5631 67.6791 87.9055 105.1639 114.3717 68.0401 40.0124 30.7727 28.2957 34.4862 33.2306 55.3124 31.6832 61.5612 79.7510 42.8379 62.4202 45.5355 37.5106
47.9423 72.3020 75.0509 57.8482 40.8135 46.4548 25.3747 27.9603 20.1619 25.2236 37.9390 33.1124 39.2180 53.9908 62.1963 74.8377 31.9792 42.0387 24.0680 27.2787 72.0869 28.2227 34.1818 34.3428 59.8241 58.4721 41.7592 51.4001 73.3527 53.8023 36.9534 71.0499 96.8998 30.4880 51.8766 24.6416 24.9460 24.1679 36.4573 31.3625 37.4303 60.4485 81.5786 101.0390 113.3955 63.6782 36.6863 27.0048 25.0800 29.7967 29.3084 49.2618 27.3176 52.1555 72.1172 37.3924 52.0300 41.1169 32.2398
42.4541 63.0525 65.9320 43.4608 34.9588 40.0986 22.1601 24.9760 18.4350 22.9317 34.2796 28.7450 35.2437 50.4369 56.7560 67.3057 28.9177 37.7503 23.0068 24.8994 63.2572 25.2735 30.3526 29.6456 52.8090 53.4768 36.8182 44.5782 57.6858 48.5862 32.6731 61.1626 72.7514 26.6022 44.2175 22.0773 21.2040 21.7469 33.4641 27.5015 32.8156 55.8562 75.8491 94.1134 102.8442 56.1748 32.8379 24.7784 22.8274 26.8585 26.7244 42.8812 24.5388 47.2508 64.7499 34.0255 45.8809 36.4956 28.1522
35.6939 56.3802 56.8580 32.7223 29.9612 34.8411 19.1552 21.1321 16.5849 20.0601 30.9527 26.4518 31.9484 45.6069 55.0691 65.0885 25.8487 34.3567 20.8977 21.1701 55.2111 21.6062 25.9249 26.2980 44.2629 45.2191 32.1015 39.3825 41.4170 41.8178 27.8918 53.0430 58.5226 23.6414 37.5254 18.6770 17.7745 19.0781 28.8318 25.0588 30.4861 48.9724 67.3460 86.7283 96.2320 52.2358 29.9773 21.8841 19.4947 24.1161 21.6381 36.4638 21.7997 39.8410 56.5682 29.2065 39.7130 30.3964 24.3802
31.7952 49.3478 48.1275 28.7097 26.2942 30.5240 17.0395 20.0384 15.0853 17.9852 29.1156 23.8611 28.9400 41.5975 52.4590 61.6611 24.8192 31.4879 17.8540 19.4983 47.8932 19.8381 23.1083 24.0739 38.4752 39.7707 28.0515 33.5822 38.7703 36.4158 24.8877 46.4543 51.2088 20.4199 32.4125 16.4828 16.7273 17.1908 25.5770 23.0763 27.9331 45.2345 62.0792 84.5856 92.6120 48.4732 28.0302 20.8477 18.3187 21.3868 19.8844 31.8191 19.9701 35.1906 50.1064 25.1563 34.3868 26.7719 22.1541
28.1604 41.7856 42.4038 23.4755 22.8646 26.8259 15.2814 18.3412 14.0040 16.7873 27.2394 23.2112 27.2657 39.7638 52.6779 61.5751 23.5604 28.2762 17.0168 17.0892 42.7106 17.2683 21.0086 20.7145 34.2365 34.0625 25.2765 31.3229 30.2841 31.5663 22.3973 39.5146 40.5375 18.9238 28.6597 15.3292 14.9972 15.7210 22.9087 21.4841 27.6445 43.1720 61.0165 85.8187 91.4762 45.8605 26.1560 19.6893 16.3509 19.4711 17.9064 26.9109 18.2127 31.0164 42.6219 23.4166 31.5552 24.4453 18.5704
24.0882 37.6643 36.4161 21.3864 20.7318 23.5402 13.4354 16.7128 13.4204 14.6741 25.5565 21.1759 25.7131 37.6161 52.5431 61.2346 21.7127 26.4974 15.8229 15.9578 38.3535 16.0581 18.5212 18.1026 31.1513 29.6973 22.4893 26.1621 27.2272 27.4076 19.3265 35.1723 37.1319 17.0985 24.6959 13.1305 14.3014 13.8626 21.0962 19.8671 25.8780 40.8812 56.7414 85.0640 89.9579 42.8537 24.3172 18.2722 15.5149 17.3774 15.9480 24.3560 16.2100 26.7967 37.9431 20.1436 26.8627 21.4089 17.1295
22.3607 33.9484 33.6762 19.7516 18.5697 21.3952 12.1176 14.8887 12.5548 13.5425 24.7869 19.2576 24.0838 38.0702 53.1466 59.6320 21.0620 25.9749 15.2206 14.7321 33.8015 14.0334 17.0570 16.6579 27.3322 26.5238 19.7374 24.0602 24.7538 25.6186 17.4893 31.7534 33.4470 15.3134 22.9509 11.4341 12.9633 12.6982 19.5548 18.5498 24.3588 39.0758 56.3761 87.0990 88.3917 41.4579 24.4374 17.5314 14.0292 15.9877 14.0062 21.4620 14.7611 23.8230 34.0610 18.7469 23.8118 18.7390 15.1346
19.8574 31.0252 29.9752 22.8666 17.9154 19.8319 11.1093 14.0532 12.5625 12.5353 22.6291 19.3579 22.8477 35.6764 52.8295 60.7865 20.1995 24.6985 14.8174 13.6328 30.4966 13.2322 16.0033 14.8861 24.4056 23.7797 18.4015 22.1721 29.1545 22.9627 16.1556 29.1288 39.2970 14.3003 19.8924 10.2193 12.4360 12.5296 17.9253 17.2961 24.0555 36.3012 53.2606 85.4264 89.5378 40.8718 23.1234 16.1304 13.3745 15.2544 12.4032 19.4251 13.8749 21.8301 30.7844 16.4630 22.2962 16.6180 14.1739
18.7884 27.4501 27.0599 19.2921 16.3290 18.1318 10.0122 12.5545 12.2265 11.6237 22.2996 17.8645 22.4060 34.8845 54.5937 62.5364 19.7469 23.1533 13.9418 12.0985 27.2030 12.0687 14.6066 13.9029 22.1079 21.7358 16.4318 21.2080 25.1168 20.4118 16.0548 26.0086 32.8887 12.7824 18.9700 9.3328 11.2161 11.6082 16.7232 16.7643 23.3338 35.2838 51.1127 87.5564 91.3927 40.0945 22.5235 15.5692 12.2761 14.0095 11.3926 17.8190 12.7047 19.6559 27.5758 16.0261 20.5420 15.3786 13.4697
17.5569 25.9065 23.6299 21.3582 15.0659 16.7276 9.7524 11.9046 11.0011 11.2654 22.0540 16.4681 21.6434 34.4971 54.1508 62.1410 19.2322 22.3032 13.7018 11.6940 24.7597 11.5548 13.2715 13.1068 20.1288 20.1516 14.9859 19.9603 28.6611 19.0560 14.9020 24.2628 36.4541 11.9528 16.8851 8.3607 10.9566 10.8872 16.2389 15.9942 21.6346 33.8493 49.5360 86.8738 90.5854 39.8506 22.0261 15.3843 11.9549 13.4375 10.3605 16.5424 11.8175 18.1902 25.7890 15.5154 19.1664 13.7035 13.2865
16.1478 24.8526 22.6243 16.9940 13.2679 15.9053 8.9396 11.1442 10.7861 10.1405 21.2460 16.2552 20.3865 33.8872 51.9297 59.0245 18.4296 21.3364 13.2373 10.9333 23.6345 11.0526 12.9085 12.0469 20.3438 19.3642 14.2061 18.7342 22.6582 18.1531 14.0350 22.6821 26.9292 11.2738 16.5870 7.5704 9.8077 10.1603 14.9066 15.5178 21.2256 33.2966 50.3622 86.8670 87.4953 37.5622 20.9038 14.9627 11.6227 12.8014 9.3417 16.0757 10.8731 17.2339 25.6111 14.0679 18.4598 12.2841 12.2019
15.2732 23.3856 22.3066 13.6287 13.3987 14.8820 8.3170 11.3511 10.8716 9.9870 20.5536 15.1055 18.9108 33.4336 52.6400 60.4317 17.9091 19.8898 12.9389 10.7736 21.5810 10.7293 12.6982 11.1642 18.9750 18.4341 13.0262 18.4994 18.1023 16.8348 13.7126 22.2924 23.3274 10.9880 16.0630 6.9177 10.0313 9.9919 14.7322 14.9719 19.4855 31.4422 48.0072 85.1739 88.3562 38.1198 20.2095 14.3774 11.5674 12.5088 8.8472 15.6149 10.5546 15.6819 24.0457 13.9229 17.0787 11.4450 11.5697
14.3322 22.7365 22.1351 13.9281 12.6638 14.8252 7.6865 10.4542 10.3426 9.0088 19.4918 14.9611 17.9961 30.6369 49.0565 56.9132 16.8342 19.1135 12.3923 10.3536 20.3813 10.1191 12.6824 10.8562 18.0377 18.0726 12.6223 17.6792 18.5392 16.6448 13.1792 22.2806 23.8079 10.2423 15.6892 6.4401 9.2173 9.5141 13.8439 14.4820 18.9082 29.7081 45.1315 78.7880 82.1128 36.1033 19.2516 13.5173 11.0884 11.7752 8.2473 15.3536 10.3543 15.4075 23.2438 13.2727 16.1275 10.8054 11.2285
13.3880 21.7464 21.9284 12.3202 12.8912 14.2790 7.6247 10.6678 10.4123 8.4001 18.1132 14.3000 17.5310 28.9471 45.7523 53.3784 16.6239 18.1575 11.8322 9.6010 19.8786 9.7462 12.0235 11.0493 17.9221 18.6713 12.0827 17.4245 15.4952 15.8979 12.6728 21.0742 20.9490 10.5558 16.1521 6.2138 9.2754 9.1619 12.8283 13.6396 18.0197 27.9296 42.2812 74.1594 79.2778 34.0571 18.2497 13.3117 10.7791 11.3943 7.5302 16.2882 9.6872 15.2942 22.9689 13.1266 15.5849 10.3462 10.3440
12.5316 22.4787 23.2526 13.7101 13.2143 14.5968 7.5539 10.1174 9.9748 8.9137 17.8681 14.1312 16.9489 27.6112 43.0248 51.8674 16.1042 17.9011 12.1465 9.5579 18.8637 9.6255 11.9490 10.3122 17.7449 18.3033 12.0114 17.0651 17.7812 16.2125 12.6286 22.6641 25.5256 9.7916 16.6880 6.1016 8.6071 9.1796 13.5701 13.7681 17.4090 27.1016 40.5398 69.8230 76.4146 33.2894 17.9508 12.7802 10.5062 11.1439 7.5149 16.2107 9.2142 14.6286 23.3402 12.7427 14.7884 10.2473 11.0694
11.9333 23.4894 24.0106 11.0049 12.5167 14.7137 7.2895 10.3865 10.3404 8.5302 17.3169 13.8118 15.4204 24.7251 38.0928 46.6395 15.5884 17.1049 11.1776 9.0880 18.7728 9.8755 11.5142 10.7032 17.9987 18.5261 11.5217 16.0351 14.1670 16.2667 12.3200 23.9262 20.7706 9.6539 17.5239 5.7878 8.6170 9.2778 12.7531 13.9789 15.8117 24.2227 37.0013 62.6102 69.2103 30.8132 16.9477 12.5768 10.5320 10.7517 7.2767 16.9337 9.1196 14.6240 23.9174 11.6932 13.4866 9.6794 11.1303
11.5469 24.7125 25.9251 10.8396 12.2367 15.5472 7.2207 10.1874 10.3555 8.1674 16.3544 13.5069 14.9557 23.9927 36.0200 43.7293 14.9650 15.9150 11.6441 8.8589 18.5275 9.8909 12.3507 10.3555 18.7481 19.6386 11.0499 15.8846 13.6448 16.7640 12.3745 26.2791 20.3294 9.4771 19.3215 5.5036 8.3649 9.2126 12.3303 13.4835 14.9792 23.4708 35.8051 59.6700 65.1617 28.6694 15.8198 12.1192 11.0536 10.9473 6.7989 18.2580 9.0617 14.1942 25.4683 11.0874 12.7871 9.4183 11.4070
10.7278 25.2173 28.4966 9.5653 12.4073 15.6536 7.2549 10.0590 10.0387 8.2898 16.2085 13.5454 14.7396 23.8400 34.6040 42.0602 15.0166 16.2007 11.4681 8.6148 17.7791 9.8317 12.2297 10.5062 19.0516 20.9922 11.5480 16.1178 12.7804 17.3630 12.2689 27.6917 19.9850 9.2902 21.0877 5.2184 8.1202 9.4956 12.1808 13.5379 14.8197 23.4644 34.8358 56.0863 63.1349 28.1195 15.7493 12.2844 11.1007 10.4393 6.7315 19.7590 9.1005 14.7178 26.4494 11.0353 12.0935 9.2725 11.7105
10.4034 25.2339 29.3905 10.1260 12.6116 16.1182 7.1092 10.0594 9.7709 7.8090 16.9116 13.3317 13.8795 22.0177 31.3912 38.2141 14.7459 15.6434 11.1331 8.5353 17.3070 9.5879 12.5018 10.6745 19.0753 21.7410 11.7756 16.1182 14.1276 17.6831 12.6235 28.0012 21.5868 9.3990 22.5307 5.1240 7.8952 8.8458 11.6988 14.2593 13.9100 21.7421 32.4754 51.7059 57.7559 26.5158 14.8535 12.7743 11.1441 10.2440 6.2540 20.6191 9.0998 14.5737 27.4125 10.4670 11.0402 8.9710 12.3393
9.5770 24.7829 30.6066 10.1285 13.8190 16.3619 7.0274 10.2283 9.5820 7.5894 16.1172 12.8909 12.9518 20.3713 28.9643 35.9614 14.2731 15.6071 11.3042 8.0943 17.1929 9.2368 12.5485 10.4139 18.9581 21.6377 11.8947 15.8030 14.2041 17.3334 12.4442 28.2307 22.6706 9.5426 24.4200 4.9154 7.9040 8.8413 11.2525 13.6922 12.9901 20.7470 30.1644 47.6474 54.6424 25.0702 14.5120 12.4501 10.9734 10.0619 5.9866 20.7000 8.9106 14.2828 26.7699 10.0733 9.8003 9.0199 12.1523
8.8531 19.7519 27.3645 11.1456 13.0729 14.1384 6.7764 8.9734 8.5599 7.1910 16.6574 12.8773 12.5008 18.5106 25.5733 32.7076 13.5033 14.3652 9.7147 7.9617 14.4198 8.8378 12.0343 10.3350 16.2260 20.0119 11.9057 13.7692 14.8990 15.9726 11.6266 23.4926 23.6602 8.6257 22.1312 4.6275 6.7816 8.3569 10.6304 14.3491 12.6532 19.3778 29.1612 44.7608 50.2823 24.0063 13.7758 12.2690 9.9692 8.8181 5.9088 20.0115 8.4264 14.3108 22.1046 9.0085 8.7291 8.3741 11.0452
7.9034 16.0969 24.5325 10.7605 11.9625 12.0798 6.2075 8.3694 7.5480 6.4405 15.2073 11.4478 11.6457 16.9794 23.0834 29.1090 12.7268 13.3602 8.7533 7.3926 12.9849 8.2823 10.5160 9.5965 14.1677 17.0214 11.2637 12.6016 14.1776 14.4497 10.5023 19.4007 22.9867 7.8079 19.9741 4.1977 6.1559 7.2295 9.2697 12.7731 11.5786 17.8028 26.4507 40.1678 45.5378 21.2750 12.6284 11.6179 9.2598 7.7104 5.5520 17.7986 7.9460 13.1568 17.9770 7.8358 7.9893 7.3796 9.4278
6.9717 12.8117 19.9767 7.6999 10.4129 10.1872 5.8312 7.8713 6.6878 6.2139 15.1225 11.4325 10.8588 16.2207 22.0500 28.7149 12.1586 12.3410 8.2892 7.0185 11.3905 7.7848 10.0639 8.8264 12.4602 15.0817 10.3499 11.4722 10.1449 11.6554 9.4739 14.8994 16.6458 7.4566 17.2211 3.9687 5.8641 6.9654 8.3675 13.0159 10.8792 17.0978 26.0616 39.2562 44.7596 21.7187 12.0269 11.2975 9.1812 7.5858 4.9830 15.7180 7.3818 12.0380 15.2675 7.2073 7.4228 6.6514 7.7095
6.3302 10.7445 17.9805 7.3775 9.7850 9.3837 5.4821 7.1398 6.0443 5.7549 13.4836 10.3739 10.2727 15.4104 19.7900 25.5607 11.2491 11.6673 7.1436 6.4788 10.4978 7.0138 8.7601 7.7041 10.4227 12.1896 8.7508 9.9433 9.5962 10.5335 8.1470 13.2164 16.2930 6.5207 15.5450 3.6899 5.3652 6.2033 7.8098 11.5496 10.2775 16.3016 24.3830 35.1589 40.8990 19.6767 11.4777 10.1806 7.7956 6.8086 4.6859 12.4850 6.4621 10.1631 12.1729 6.3410 6.5120 5.9366 6.7089
5.7596 9.0966 14.3906 6.9324 8.8351 8.1068 4.9696 6.4806 5.4180 5.5050 12.4015 9.6162 9.7011 13.9227 17.5844 22.8294 10.3493 11.0174 6.6865 6.0825 9.6385 6.2314 7.7951 7.2183 9.3135 10.6627 7.8743 8.9117 8.3487 8.8949 7.2284 10.5329 13.9097 6.0206 12.9186 3.4164 5.2809 5.7265 7.3417 10.4639 9.7270 15.3333 22.4335 31.2657 36.5751 18.6984 10.8698 9.3239 7.1066 6.4286 4.2813 11.1010 6.0202 9.3901 10.2718 5.8762 6.0978 5.3232 5.7876
5.2561 7.9198 12.7557 7.5501 8.4434 7.3027 4.5001 6.0585 4.6535 5.0255 11.2277 8.9838 9.2630 13.2441 16.3367 21.3331 9.1581 10.6750 6.0592 5.7047 8.6063 5.5917 7.0949 6.5223 8.0476 9.1717 6.9621 7.7623 8.2527 7.9344 6.4471 9.3858 14.3595 5.7707 11.6676 3.1292 4.8492 5.0692 6.6786 9.5883 9.1178 15.3748 21.4255 29.2103 33.3122 16.9457 9.9832 8.3560 6.5808 5.8979 4.0485 9.4712 5.5013 8.2782 8.8349 5.1015 5.3715 4.9637 5.1888
4.7863 7.3089 10.7863 6.2479 7.2655 6.1969 4.3214 5.5390 4.3903 4.8267 10.5639 8.3795 8.6355 12.1726 14.8846 20.3030 8.8371 10.2678 5.4752 5.4179 8.0613 5.3601 6.3776 6.1459 7.5142 8.2113 6.3182 6.8538 6.9308 7.2392 5.5737 7.9895 12.2287 5.1279 9.5303 2.9443 4.7207 4.9228 6.3593 8.9513 8.4807 14.2893 19.9345 26.7962 32.1408 16.7908 9.8278 7.8177 6.1085 5.5655 3.8132 8.5338 5.1768 7.5683 8.1735 4.7340 5.0214 4.5971 4.6217
4.6044 6.6255 9.9315 5.2638 6.6196 5.7330 3.8684 5.1914 4.0238 4.4920 10.2344 7.7632 8.1220 12.1772 14.4270 18.8688 8.1387 9.7133 5.1873 5.0135 7.5205 5.0556 6.0311 5.5811 6.8393 7.1132 5.7106 6.4146 5.7926 6.7136 5.4331 7.2855 10.2791 4.6960 8.6125 2.7747 4.3351 4.4307 5.8550 8.4610 8.0748 13.6623 19.6496 26.3834 29.8921 15.6379 9.2148 7.4045 5.4411 5.2486 3.7260 7.6809 4.8541 6.5751 7.2434 4.3736 4.5233 4.2497 4.4236
4.2464 6.3972 8.8027 4.9032 6.2683 5.3123 3.6798 4.8452 3.7660 4.3996 9.5596 7.3330 7.6335 11.0881 13.0557 17.9457 7.9726 9.1745 4.6075 4.8465 7.2597 4.5842 5.6164 5.4149 6.4659 6.8041 5.4983 5.8443 5.4507 5.9505 4.8276 6.7593 9.3228 4.5251 7.6992 2.5141 4.1073 4.2531 5.6426 7.7779 7.6729 12.9157 17.8602 24.0566 28.8986 15.1483 8.8704 7.1204 5.1138 4.7547 3.4129 6.9948 4.5151 6.6315 6.8366 4.0699 4.4753 3.8924 3.9535
4.0787 6.0406 8.1864 4.3713 5.8504 5.0906 3.5383 4.5777 3.5838 4.2239 9.1303 7.1334 7.6787 11.1065 12.1584 16.6659 7.1117 8.8110 4.4550 4.6529 6.9848 4.4111 5.4114 4.9987 6.0168 6.3109 5.2394 5.3431 4.7036 5.6000 4.6952 6.2817 7.9358 4.4142 7.0971 2.5743 4.0099 4.0958 5.4005 7.5009 7.6901 13.2284 17.8349 22.6102 26.5054 14.1635 8.2458 6.5611 4.9548 4.6730 3.2745 6.1334 4.4733 6.0253 6.6280 3.9473 4.0449 3.7323 3.7390
3.8074 5.8104 7.6104 4.4883 5.3169 4.6981 3.2826 4.3487 3.4650 3.8604 8.4460 6.7851 7.4945 10.3749 11.4629 15.7856 6.9336 9.0673 4.0955 4.3177 6.6903 4.3178 5.0159 4.7369 5.8678 6.1928 4.8804 5.1889 4.6966 5.4433 4.3482 5.9073 8.0027 4.0100 6.4700 2.3797 3.6671 3.8174 5.0567 6.9643 7.5095 12.6852 17.0132 21.7079 25.3957 14.1577 8.4637 6.0999 4.6029 4.4594 3.1319 6.0240 4.0392 5.8550 6.3812 3.8425 4.1922 3.5933 3.5798
3.9731 5.7344 7.7324 4.4705 5.1875 4.8712 3.1865 4.0810 3.1959 3.7479 8.0517 6.7377 7.0064 10.1972 10.8248 14.6306 6.7029 8.3708 3.9069 4.0101 6.5384 3.9250 4.8134 4.5340 5.6863 5.8941 4.8464 5.0344 4.9349 5.6015 4.4899 6.0523 7.9849 3.8388 6.6485 2.3517 3.4347 3.7666 4.7567 6.5335 7.3185 12.2979 16.6575 20.4501 23.6527 12.8400 7.8881 5.9468 4.2323 4.1958 3.1059 5.6150 3.9667 5.6297 6.2505 3.7397 4.0189 3.5577 3.6755
3.9331 5.6314 7.3622 4.1781 5.0324 4.4247 3.0648 3.8222 3.0049 3.4961 7.3331 6.1746 6.5798 9.7981 9.9414 13.2855 6.2073 8.0676 3.8300 3.8325 6.1260 3.9638 4.6084 4.5201 5.4242 5.9294 4.7688 5.0388 4.6548 5.5563 4.3597 5.9704 7.3683 3.6723 5.9119 2.2553 3.4330 3.5916 4.4106 6.0786 6.7427 11.7971 15.8118 18.7476 21.5681 11.9757 7.5797 5.2696 4.2110 3.9443 3.0130 5.7292 3.7095 5.8148 6.0595 3.6931 3.9789 3.3765 3.5130
3.9464 5.1096 6.9901 3.9553 4.9766 4.1207 2.9597 3.8052 2.9467 3.4198 6.9482 6.2647 6.3094 9.6597 9.5193 12.8531 5.8293 7.3819 3.6452 3.6330 5.7036 3.6599 4.3974 4.2765 5.2189 5.8662 4.5827 4.7776 4.4386 5.3463 4.1027 5.4147 6.8660 3.6636 5.6304 2.1595 3.4033 3.4712 4.1267 5.8155 6.7597 11.8093 15.7729 17.7978 20.6697 11.5160 6.9297 5.1034 4.0109 3.7590 2.7469 5.3900 3.4859 5.6533 5.8713 3.6505 3.8966 3.0642 3.2396
4.1017 4.9882 7.2912 3.8806 4.9341 3.9084 2.7441 3.6787 2.8261 3.0505 6.5449 6.1642 6.1880 8.9573 8.9820 12.4464 5.7488 7.1322 3.5954 3.4826 5.2643 3.7024 4.2964 4.2386 4.9323 6.0335 4.7760 4.6428 4.5018 5.6861 4.1324 5.6696 7.0062 3.5353 5.6250 1.9802 3.2272 3.1919 3.8844 5.5022 6.7304 11.2861 15.3339 17.1732 20.1291 11.2322 6.8191 4.9044 4.0155 3.7771 2.6514 5.3276 3.2594 6.0339 5.6649 3.6575 3.9381 2.8925 3.3199
4.3054 5.0366 7.8263 4.2357 5.0476 4.2768 2.7045 3.4409 2.6939 3.0984 6.3086 5.6474 5.7977 8.5207 8.3165 11.1842 5.2680 6.6618 3.4291 3.3355 5.3982 3.4504 4.1205 4.2851 4.8505 6.3559 4.9974 4.6302 4.8613 6.1421 4.2122 6.0484 7.6460 3.5284 5.7550 1.9801 2.9941 3.1926 3.8591 5.1839 6.1660 10.5786 14.1610 15.5340 18.1250 10.0610 6.2776 4.6741 3.7383 3.4867 2.5062 5.2543 3.3438 6.2934 5.7639 3.8964 4.0070 2.8394 3.4441
4.4454 4.9494 8.3259 4.7027 5.4048 4.2086 2.6281 3.2860 2.6005 2.9754 6.2443 5.5524 5.7346 8.0988 7.5440 10.5597 5.0848 6.6217 3.3987 3.1703 5.1088 3.3981 3.9167 4.6297 4.7963 7.0269 5.4346 4.9002 5.3593 6.2494 4.2879 6.1839 8.6065 3.4035 5.9690 1.9416 2.8194 3.1112 3.7011 5.0532 6.1578 10.4464 13.5638 14.5692 17.0484 10.1240 6.2494 4.5731 3.5709 3.4103 2.4278 5.7220 3.4243 7.0539 5.8815 4.1756 4.3474 2.7643 3.4962
4.4870 5.1528 8.3300 4.7395 5.6883 4.1615 2.5376 3.1029 2.5835 2.8021 5.4613 5.4433 5.7118 8.0577 7.3646 10.2053 5.1250 6.1434 3.4395 2.9757 4.9755 3.3097 3.7376 5.0230 4.7480 7.6151 5.8139 5.2850 5.4325 6.3191 4.5863 6.3755 8.7848 3.3415 5.9909 1.8697 2.8186 3.0095 3.5408 4.5654 6.1250 10.4806 13.4218 13.6078 16.3899 9.5233 6.0946 4.1267 3.5462 3.3189 2.2466 6.0436 3.4238 7.7830 6.1641 4.5061 4.5828 2.6246 3.6732
4.8944 5.4012 9.2781 4.6937 5.9630 4.4453 2.4453 3.0654 2.6222 2.8420 5.4626 5.2917 5.6677 7.5544 6.9432 9.5581 4.9629 5.9944 3.4566 3.1244 5.1524 3.2860 3.7802 5.2699 5.4113 8.5602 6.2087 5.6712 5.6097 7.0322 4.9359 6.8811 9.1704 3.3534 6.3578 1.8893 2.7554 2.9645 3.5463 4.6630 5.9186 9.7755 12.8175 13.3204 15.6276 9.1259 5.8388 4.1110 3.6637 3.2738 2.4230 6.7166 3.4758 8.4531 6.8757 4.8030 4.9528 2.6079 3.7735
4.9397 5.5782 9.7786 4.9972 6.2393 4.6659 2.4982 2.9908 2.6058 2.7443 5.0610 5.1246 5.2898 7.2358 6.5117 8.8619 4.9673 5.8323 3.3986 2.8984 5.2143 3.1737 3.8321 5.5652 5.5236 8.8222 6.5716 5.9716 5.8983 7.1586 5.1263 7.3114 9.8658 3.3363 6.7936 1.8470 2.6627 2.9844 3.3834 4.3710 5.6400 9.2119 12.0610 12.2409 14.7648 8.8270 5.7958 3.9824 3.4713 3.3412 2.2999 7.1754 3.5372 8.8246 6.8878 4.8247 5.0530 2.5408 3.8613
4.8928 5.6826 10.0078 5.2595 6.4400 5.0837 2.6248 2.8537 2.5149 3.0332 5.3577 5.2362 5.2326 6.9372 6.0374 8.3624 4.7701 5.5605 3.5572 3.1022 5.5963 3.3239 3.7295 5.8089 5.6432 8.9055 6.6088 6.0273 6.0025 7.1729 5.1775 7.5314 10.2297 3.3566 7.1484 2.0648 2.7351 3.0146 3.6932 4.6011 5.5621 9.0321 11.7878 11.8903 14.2377 8.2293 5.3395 4.1850 3.6847 3.3687 2.4666 7.2552 3.5023 9.1440 6.8274 4.9524 5.0508 2.7490 3.9500
4.6619 5.7345 9.8171 4.9662 6.5978 5.4231 2.7863 2.8391 2.4269 3.3185 5.6952 5.6563 5.2217 6.7513 5.8779 8.0480 5.1139 5.3260 3.6542 3.0380 5.7815 3.1981 3.9406 5.7340 5.9872 8.6236 6.1304 6.3412 5.7978 6.8669 5.2245 7.6187 9.6608 3.4720 7.5938 2.2624 2.5849 3.2536 3.8341 5.1970 5.6266 8.8868 11.8965 11.6782 13.9287 8.1488 5.3955 4.4691 3.5381 3.3787 2.5083 7.5962 3.3920 8.4732 6.9036 4.7286 4.7526 2.9026 3.8079
4.4106 5.8039 9.1253 4.5300 6.4016 6.0736 3.3887 3.1206 2.5509 4.6229 7.1251 7.1109 5.3354 6.5509 5.8100 7.8179 5.4338 5.3368 3.7445 3.5886 6.3506 3.4241 4.3913 5.6925 6.6906 8.9341 5.6885 6.7706 5.1111 6.4025 5.4476 7.4274 8.8017 3.7510 7.5861 3.1658 2.7212 4.0438 5.0320 7.1098 5.9427 8.7316 12.6407 12.0629 13.9003 7.9958 5.3128 5.3214 3.6387 3.8408 2.9748 7.9662 3.3168 8.1104 7.3583 4.6852 4.6329 3.6738 3.6250
4.0674 5.6141 8.6739 4.6741 6.4526 6.5326 4.2354 3.4426 2.5933 7.0652 9.3149 8.6410 5.9389 6.4587 6.0169 7.6827 5.9536 5.5408 4.0717 4.7822 6.8315 3.6856 4.8449 5.5788 7.5308 8.3423 5.0863 7.4881 4.9265 6.1152 5.4958 7.2136 8.4654 4.2844 7.6301 4.4336 2.9057 5.1915 7.4309 9.7579 6.3818 8.8052 13.0047 12.2164 13.9083 7.9077 5.3265 6.5781 3.9329 4.2181 3.9412 8.0847 3.0797 7.5123 7.2297 4.5811 4.9547 4.8463 3.3186
3.5546 5.1387 7.7017 4.1120 6.6037 6.9523 4.8918 3.6603 2.5325 9.2399 11.8567 9.6663 6.4338 6.2181 6.1519 7.4837 6.9937 5.6937 4.4363 6.4145 6.7908 4.3245 5.7410 5.4445 7.9798 7.5844 4.4952 8.5465 3.9881 5.3278 5.9233 6.7501 7.1342 4.7033 7.6882 5.6983 2.9982 5.9193 9.9280 12.2156 6.4391 8.5907 12.8160 12.3909 14.4712 7.9945 5.4108 8.5380 4.4932 4.8655 5.4244 8.0914 2.9678 6.7910 6.7237 4.6032 5.1973 6.1346 3.0807
3.2793 4.5195 6.6492 3.9778 6.0132 6.3965 5.0523 3.7146 2.4421 10.1508 12.6453 9.9862 6.5836 6.0663 6.1359 7.1478 7.1510 5.9826 4.7148 7.8674 6.7886 4.9529 6.4577 5.3161 8.4704 6.9574 3.8455 8.9139 3.6138 4.7428 6.0843 5.7689 6.6207 4.6087 6.7923 6.2822 2.9786 6.1256 11.3841 12.9774 6.3665 8.5627 12.7547 12.0542 13.9923 7.6588 5.2929 9.1695 4.8687 5.3452 6.8284 8.0657 2.6316 6.0871 6.2064 4.4501 5.0061 7.2289 2.7978
2.8848 4.1892 5.9501 3.8348 5.5981 5.8396 5.1422 3.3810 2.3300 10.2050 12.8496 8.8631 6.1062 5.6613 5.9231 6.7406 6.9088 5.7984 4.4241 8.3974 6.6385 5.0240 6.3699 5.0568 8.0705 6.1210 3.4825 8.4140 3.2650 4.1362 5.7558 5.0561 6.3617 4.3238 6.1781 6.4495 2.7856 6.0871 11.7156 12.4643 5.5390 7.5913 11.4006 11.7195 13.1976 7.0314 4.9244 9.3367 5.0204 5.0469 7.6224 6.9984 2.4650 5.7412 5.6739 4.2676 4.9824 7.7238 2.5648
2.4417 3.4821 4.8592 3.3598 4.8611 4.9096 4.5347 2.9919 2.1124 9.0488 10.9456 7.4411 5.5173 5.4156 5.4764 6.3474 6.1236 5.4796 4.1256 8.0386 6.0292 4.9434 5.8402 4.4554 7.3386 5.2642 3.0482 7.2507 2.7478 3.4236 4.9317 4.0534 5.5531 3.6995 5.0594 5.8822 2.5005 5.3973 10.7044 10.3683 4.9010 7.0360 10.1424 10.1786 11.9304 6.4653 4.4878 8.1531 4.6927 4.5653 7.7525 6.1086 2.1653 5.0671 4.8603 3.7775 4.4287 7.5879 2.1811
2.0594 3.0488 4.2751 2.9381 4.1972 4.0586 3.9107 2.4776 1.8558 7.3016 8.5830 5.7652 4.5814 4.7076 4.6879 5.7858 5.0621 4.6865 3.5026 6.7306 5.2459 4.3073 4.8540 3.7589 6.0588 4.5825 2.6852 5.8877 2.4378 2.9111 4.0030 3.4410 4.9042 2.9800 4.4872 4.9238 2.1224 4.5549 8.7928 7.8689 4.0106 5.9831 8.2327 8.6699 10.6127 5.6907 3.8514 6.5244 3.9018 3.7901 6.7192 5.1133 1.9823 4.4690 4.0895 3.3413 3.7478 6.5375 1.9929
1.7959 2.4524 3.8443 2.4639 3.5428 3.4690 3.3814 2.0946 1.7092 5.6444 6.4382 4.4680 4.0607 4.2813 4.1311 5.1649 4.1804 4.1071 2.8929 5.3510 4.4042 3.8284 3.7824 3.3606 4.9235 3.9127 2.4233 4.4194 2.1414 2.5590 3.0128 2.9442 4.3029 2.4511 3.9597 4.0325 1.9109 3.7333 6.7951 5.7741 3.5361 5.4054 7.3399 7.6843 9.2854 5.0397 3.4516 5.0274 3.4135 3.1483 5.6149 4.2981 1.7793 3.9952 3.2787 2.7133 3.0798 5.3648 1.6333
1.6138 2.2047 3.3477 2.1773 3.0088 3.0661 2.8140 1.8547 1.5380 4.1660 4.5077 3.4984 3.2502 3.7316 3.8744 4.9931 3.4230 3.4874 2.4109 4.2291 3.7166 3.1506 3.0447 2.9679 3.9967 3.4319 2.2963 3.3857 1.9704 2.2111 2.3930 2.6010 3.7905 2.0669 3.5720 3.1599 1.6730 3.0446 5.0635 4.0835 2.8961 4.4307 6.1495 6.6660 8.4726 4.5626 3.1430 3.5880 2.8880 2.4677 4.4634 3.7527 1.6876 3.5806 2.8308 2.2029 2.6185 4.1567 1.4312
1.4039 1.8909 3.0454 1.9784 2.6871 2.6648 2.3144 1.6472 1.3313 3.0363 3.3839 2.8993 2.7883 3.5527 3.2615 4.3663 2.9200 3.0162 2.0745 3.1976 3.2348 2.6495 2.4985 2.5990 3.3531 3.0349 1.9808 2.6142 1.8158 1.9472 1.8723 2.2499 3.4115 1.8356 3.2030 2.4313 1.5238 2.4327 3.7111 3.0420 2.5990 4.1966 5.7728 5.8373 7.4271 4.1206 2.7667 2.8093 2.3868 2.1399 3.4583 3.3089 1.5261 3.0270 2.4822 1.8620 2.0730 3.3024 1.1606
1.3249 1.7008 2.6562 1.9211 2.4632 2.2544 1.9881 1.4423 1.2330 2.3380 2.6219 2.4180 2.4952 3.3077 3.1021 4.1611 2.5381 2.7758 1.8078 2.4745 2.8027 2.3511 2.1694 2.3463 2.9306 2.7321 1.8923 2.1037 1.8552 1.8482 1.5502 1.9806 3.3602 1.6074 2.7150 1.9545 1.4369 2.0195 2.7961 2.3546 2.3754 3.8990 5.0239 5.0646 6.8014 3.8632 2.6745 2.1660 1.9903 1.8498 2.7739 3.0375 1.4174 2.7988 2.2437 1.5882 1.8433 2.5948 1.1151
1.2112 1.5314 2.5958 1.8296 2.2610 2.0241 1.8070 1.3785 1.1475 1.9312 2.2099 2.1705 2.2524 2.9591 2.7923 4.1415 2.3265 2.4544 1.6287 1.9641 2.4250 2.0364 1.8868 2.1656 2.4216 2.4747 1.8073 1.7054 1.8416 1.7558 1.2803 1.8869 3.1718 1.4515 2.5921 1.6677 1.3651 1.7596 2.2220 1.9815 2.2109 3.4747 4.6000 4.6425 6.6137 3.8032 2.4769 1.8827 1.7562 1.6897 2.2080 2.6412 1.3442 2.5441 1.9776 1.3785 1.6280 2.1418 0.9988
1.1072 1.4252 2.2659 1.6092 2.0514 1.8327 1.5220 1.2998 1.0573 1.5849 1.8055 1.8247 2.0824 2.6890 2.5792 3.6398 2.0463 2.1892 1.4989 1.6217 2.1693 1.7445 1.7285 1.8814 2.2005 2.2275 1.6405 1.4680 1.5766 1.5525 1.1273 1.6947 2.7078 1.3420 2.3657 1.3733 1.2507 1.4926 1.8063 1.6286 1.9890 3.1709 4.0287 4.0400 5.7916 3.3169 2.2086 1.5383 1.5458 1.4993 1.7989 2.3746 1.2518 2.2615 1.8578 1.2520 1.4756 1.7327 0.9331
1.0881 1.3470 2.0917 1.5657 2.0178 1.6922 1.3410 1.1980 0.9577 1.3422 1.6206 1.7192 1.9292 2.5177 2.3239 3.3665 1.8848 2.0794 1.4446 1.4301 2.0100 1.6456 1.5897 1.8736 2.0224 2.1175 1.6213 1.3765 1.5275 1.4511 1.0813 1.5385 2.5780 1.2722 2.2039 1.1767 1.1779 1.3299 1.5620 1.4323 1.8657 3.0103 3.7840 3.6946 5.3647 3.1706 2.1205 1.4146 1.4460 1.4552 1.5619 2.2883 1.2255 2.1820 1.7595 1.1776 1.3794 1.4900 0.8709
1.0634 1.3098 1.9913 1.4753 1.8556 1.5485 1.2464 1.1536 0.8972 1.2027 1.4504 1.6471 1.8770 2.3538 2.1431 3.1864 1.7742 1.9741 1.3289 1.2881 1.9572 1.4574 1.4993 1.8148 1.9233 1.9194 1.6020 1.2197 1.4820 1.5032 0.9607 1.4647 2.4777 1.2131 1.9957 1.0502 1.1312 1.2308 1.3849 1.3231 1.8039 2.8255 3.5590 3.3834 4.9703 3.0607 2.0583 1.2668 1.3141 1.3618 1.3111 2.1420 1.1569 2.1036 1.6441 1.0595 1.3372 1.3348 0.8503
0.9352 1.2875 1.8622 1.4521 1.7243 1.5138 1.2345 1.0479 0.8633 1.1168 1.2913 1.5015 1.8319 2.2445 2.0155 2.9923 1.6667 1.8279 1.2681 1.1555 1.8855 1.3786 1.4240 1.7443 1.8132 1.9781 1.5064 1.1109 1.3351 1.3607 0.8732 1.4425 2.3294 1.1664 1.8272 1.0044 1.0780 1.1867 1.2379 1.1874 1.7421 2.7578 3.3585 3.1307 4.6449 2.8405 1.8975 1.1425 1.2444 1.3192 1.1805 2.0780 1.1336 2.0454 1.6379 1.0320 1.2502 1.2230 0.8125
0.9525 1.1846 1.7664 1.3582 1.6760 1.4150 1.0998 1.0514 0.8305 1.0316 1.2596 1.4167 1.6683 2.1659 1.9474 2.8673 1.5222 1.7857 1.2878 1.0901 1.7668 1.2607 1.3742 1.6819 1.7045 1.8735 1.4822 1.0742 1.2877 1.2929 0.8524 1.2949 2.2228 1.1178 1.7951 0.9095 1.0319 1.0842 1.1622 1.1437 1.5997 2.5507 3.2051 3.0499 4.3833 2.6740 1.8096 1.0907 1.1671 1.2665 1.1005 1.9163 1.0882 1.9799 1.5728 1.0047 1.2216 1.1382 0.7533
0.9187 1.1591 1.7164 1.4653 1.6617 1.3199 1.0663 0.9823 0.7762 0.9927 1.1852 1.3097 1.5712 2.0050 1.8121 2.6105 1.4506 1.6532 1.2198 1.0128 1.7495 1.2013 1.2425 1.6484 1.6662 1.7458 1.4157 1.0101 1.4138 1.2917 0.8135 1.2713 2.3923 1.0816 1.6709 0.8753 1.0295 0.9991 1.1214 1.0647 1.4999 2.3848 2.8964 2.6548 4.0093 2.4759 1.7021 1.0197 1.1326 1.2099 1.0181 1.8237 1.0449 1.8554 1.5094 0.9390 1.1546 1.1293 0.7172
0.8935 1.0468 1.6109 1.5349 1.6114 1.2184 1.0254 0.9538 0.7544 0.9028 1.0802 1.2438 1.4848 1.9846 1.7373 2.5234 1.3663 1.6060 1.1667 0.8932 1.5290 1.0689 1.2819 1.6067 1.4759 1.6466 1.3877 0.9803 1.3015 1.2155 0.7969 1.1832 2.3164 1.0549 1.6177 0.8168 0.9883 0.9490 0.9923 0.9722 1.4473 2.3227 2.8068 2.5788 3.8369 2.4118 1.6491 0.9413 0.9865 1.1514 0.9288 1.7188 1.0228 1.8188 1.3661 0.9074 1.1273 1.0201 0.7119
0.8730 1.0130 1.6284 1.2612 1.5094 1.1999 0.9853 0.9241 0.7183 0.8465 1.0021 1.2203 1.4385 1.8541 1.6482 2.4438 1.2946 1.4802 1.0920 0.8825 1.4453 1.0711 1.2393 1.5965 1.4174 1.5745 1.3997 0.9019 1.1288 1.2086 0.7219 1.1712 1.9971 1.0355 1.6154 0.7671 0.9289 0.9303 0.9299 0.9349 1.3924 2.1989 2.6821 2.4300 3.6560 2.3167 1.5370 0.8811 0.9576 1.1741 0.9312 1.6661 1.0059 1.7583 1.3101 0.8572 1.1010 0.9729 0.6765
0.8150 1.0482 1.5255 1.2178 1.4739 1.1918 0.9168 0.8929 0.7214 0.8304 0.9843 1.1518 1.4318 1.7900 1.5395 2.3019 1.2328 1.4567 1.0929 0.8379 1.4825 1.0640 1.1731 1.4940 1.3819 1.5422 1.3487 0.8865 1.1350 1.1311 0.6984 1.1459 1.9286 1.0006 1.5132 0.7126 0.9133 0.9081 0.9088 0.8869 1.3536 2.1036 2.5491 2.2385 3.4416 2.2106 1.4941 0.8534 0.9634 1.1213 0.8330 1.5627 0.9372 1.7219 1.3255 0.8633 1.0833 0.8839 0.6788
0.8206 0.9336 1.4660 1.1607 1.4264 1.1334 0.8951 0.8673 0.7020 0.7411 0.9164 1.1016 1.3099 1.6726 1.5016 2.2328 1.1985 1.3805 1.0749 0.7943 1.3917 1.0390 1.1184 1.4870 1.2712 1.4239 1.2898 0.8429 1.0729 1.1432 0.6593 1.0447 1.8710 0.9733 1.4576 0.6858 0.8998 0.8460 0.8161 0.8559 1.2735 1.9782 2.3723 2.1795 3.3118 2.1267 1.4450 0.8066 0.9406 1.1006 0.7902 1.5280 0.9200 1.5972 1.2029 0.8239 1.0311 0.8702 0.6503
0.7774 0.9253 1.4362 1.1791 1.4057 1.0960 0.8726 0.8196 0.6664 0.7164 0.8702 1.0238 1.2983 1.5247 1.3962 2.0304 1.1223 1.2925 1.0194 0.7699 1.3681 0.9873 1.1496 1.4877 1.2143 1.3783 1.2642 0.7977 1.0259 1.0619 0.6426 1.0206 1.8551 0.9587 1.4550 0.6524 0.8679 0.8060 0.8130 0.7921 1.2101 1.8054 2.2083 2.1003 3.0624 1.9770 1.3518 0.7659 0.8956 1.0585 0.7625 1.4716 0.9080 1.6075 1.1467 0.7966 1.0092 0.8395 0.6056
0.7939 0.8865 1.2975 1.1008 1.3637 1.0530 0.8375 0.8017 0.6344 0.7621 0.8678 1.0006 1.2265 1.4889 1.3867 2.0215 1.1364 1.2653 1.0033 0.7356 1.2910 0.9736 1.0699 1.3693 1.1715 1.3067 1.1801 0.8359 0.9995 1.0364 0.6360 0.9839 1.7413 0.8977 1.3160 0.6755 0.8296 0.8031 0.8177 0.8055 1.1410 1.7487 2.1294 2.0091 3.0417 1.9382 1.3455 0.7549 0.8778 1.0497 0.7618 1.3162 0.8557 1.4722 1.1322 0.8204 1.0319 0.8142 0.6080
0.7464 0.8708 1.3162 1.1102 1.3004 1.0055 0.7870 0.7796 0.6122 0.6910 0.8095 0.9268 1.1557 1.4131 1.2832 1.8537 1.0553 1.2517 0.9568 0.7027 1.2513 0.9309 1.0183 1.3464 1.1146 1.2632 1.1202 0.7840 1.0222 1.0601 0.6068 0.9508 1.7917 0.8889 1.3019 0.6092 0.7826 0.7446 0.7703 0.7282 1.0705 1.6124 1.9963 1.8887 2.8370 1.8292 1.2771 0.7317 0.7926 1.0173 0.7079 1.3184 0.8328 1.4162 1.1127 0.7794 0.9388 0.7792 0.5976
0.7552 0.8290 1.2959 1.1092 1.2657 0.9800 0.7907 0.7553 0.6350 0.6541 0.7732 0.9240 1.1376 1.4168 1.2587 1.7771 1.0294 1.2092 0.9373 0.6764 1.2076 0.8784 1.0566 1.3487 1.0781 1.1969 1.1174 0.7442 1.0173 1.0424 0.5916 0.8975 1.7716 0.8655 1.2822 0.6137 0.7809 0.7315 0.7374 0.7006 1.0902 1.6216 2.0112 1.7973 2.6706 1.7348 1.2287 0.7149 0.7834 1.0003 0.6638 1.2318 0.8323 1.3837 1.0768 0.7428 0.9188 0.7498 0.5516
0.7160 0.8529 1.2175 1.0226 1.2146 0.9715 0.7396 0.7335 0.5876 0.6309 0.7448 0.8901 1.1164 1.3509 1.1650 1.6810 0.9933 1.1427 0.9018 0.6641 1.2124 0.8226 0.9801 1.2755 1.0645 1.1597 1.1196 0.7294 0.9566 0.9747 0.5732 0.9107 1.6154 0.8502 1.1763 0.5820 0.7579 0.6883 0.7347 0.6785 1.0557 1.5915 1.8694 1.6201 2.5290 1.6738 1.2044 0.6649 0.7438 0.9183 0.6675 1.2224 0.7834 1.3718 1.0630 0.7191 0.9383 0.7531 0.5590
0.7378 0.7969 1.1927 0.9892 1.1959 0.9341 0.7315 0.7225 0.5840 0.6233 0.7142 0.8299 1.1103 1.2509 1.1175 1.6795 0.9217 1.1305 0.8932 0.6423 1.1637 0.8270 0.9928 1.2724 1.0255 1.1595 1.1053 0.7016 0.9425 0.9682 0.5643 0.8826 1.5708 0.8420 1.1886 0.5641 0.7680 0.6743 0.7029 0.6428 1.0089 1.5025 1.7588 1.5580 2.4514 1.6737 1.1580 0.6263 0.7417 0.9388 0.6654 1.1702 0.7672 1.3618 1.0031 0.7151 0.9171 0.7259 0.5311
0.7005 0.7652 1.1479 0.9681 1.1999 0.8871 0.7131 0.6970 0.5725 0.6466 0.7232 0.8250 1.0559 1.1754 1.0447 1.5594 0.8848 1.1224 0.8882 0.6143 1.1215 0.8298 0.9794 1.2816 0.9777 1.0915 1.0852 0.6563 0.9164 0.9443 0.5374 0.8299 1.5692 0.8423 1.1329 0.5500 0.7471 0.6759 0.6889 0.6640 0.9567 1.4020 1.6890 1.5643 2.3500 1.5686 1.1237 0.6243 0.7140 0.9492 0.6226 1.1406 0.7605 1.3293 0.9446 0.6729 0.8923 0.6867 0.5299
0.7108 0.7621 1.1333 0.9399 1.1133 0.8816 0.6794 0.6727 0.5574 0.5996 0.7130 0.7905 1.0521 1.1512 1.0468 1.5543 0.8565 1.0770 0.9151 0.6133 1.0871 0.8133 0.9999 1.2571 0.9564 1.1127 1.0770 0.6393 0.9363 0.9651 0.5356 0.8114 1.5244 0.7839 1.0814 0.5603 0.7055 0.6514 0.6700 0.6511 0.9478 1.3917 1.6218 1.4659 2.2291 1.5240 1.0960 0.6025 0.7409 0.9838 0.6039 1.0990 0.7684 1.3282 0.9892 0.6680 0.8750 0.6851 0.5200
0.6676 0.7270 1.1038 0.8818 1.1062 0.8555 0.6733 0.6753 0.5539 0.5796 0.6648 0.7653 1.0447 1.1316 0.9582 1.4241 0.8154 1.0163 0.8945 0.5910 1.0638 0.7666 0.9298 1.2194 0.9283 1.0515 1.0136 0.6526 0.8683 0.8874 0.5329 0.7951 1.4468 0.7909 1.0968 0.5221 0.7274 0.6248 0.6336 0.6068 0.9196 1.3685 1.5931 1.4064 2.1300 1.4016 1.0197 0.5858 0.7048 0.9394 0.5812 1.0867 0.7077 1.2582 0.9238 0.6552 0.8621 0.6564 0.4909
0.6731 0.7205 1.0905 0.8929 1.1329 0.8282 0.6317 0.6586 0.5602 0.5436 0.6442 0.7582 1.0255 1.1137 0.9259 1.3785 0.8334 1.0254 0.8500 0.5639 1.0398 0.7425 0.9152 1.2090 0.9156 1.0202 1.0691 0.6445 0.8946 0.8707 0.5218 0.7581 1.4936 0.7931 1.0868 0.5055 0.7098 0.6115 0.5954 0.5899 0.9298 1.3340 1.5532 1.3670 2.0911 1.4228 1.0238 0.5731 0.6685 0.8984 0.5613 1.0559 0.7371 1.2674 0.9291 0.6499 0.8671 0.6207 0.4838
0.6581 0.6886 1.0501 0.9052 1.0633 0.8185 0.6447 0.6428 0.5280 0.5654 0.6156 0.7111 0.9723 1.0892 0.9454 1.3404 0.7892 0.9826 0.8703 0.5705 1.0094 0.7340 0.8864 1.2492 0.8820 0.9858 1.0745 0.6094 0.9125 0.8753 0.5107 0.7551 1.4624 0.7885 0.9962 0.5102 0.6860 0.6106 0.6150 0.5592 0.8714 1.2809 1.4635 1.3093 1.9858 1.3719 1.0099 0.5359 0.6380 0.9497 0.5448 1.0497 0.7032 1.2766 0.8759 0.6087 0.8375 0.6173 0.4791
0.6614 0.6830 0.9824 0.9016 1.0371 0.7736 0.6080 0.6256 0.5100 0.5433 0.5852 0.6831 0.9796 1.0300 0.9125 1.3321 0.7419 0.9838 0.8389 0.5359 0.9592 0.7204 0.8825 1.1433 0.8381 0.9528 1.0187 0.6170 0.9103 0.8630 0.5076 0.7192 1.4064 0.7803 0.9551 0.4911 0.6705 0.5824 0.5781 0.5274 0.8511 1.2381 1.3737 1.2471 1.9289 1.3602 0.9785 0.5042 0.6298 0.8765 0.5350 0.9632 0.6476 1.2083 0.8653 0.6375 0.8214 0.6020 0.4734
0.6526 0.6761 0.9751 0.9073 1.0511 0.7832 0.6055 0.6055 0.4997 0.5114 0.5718 0.6692 0.9277 0.9846 0.8516 1.2876 0.7056 0.9857 0.9156 0.5301 0.9890 0.7130 0.9093 1.2224 0.8341 0.9746 1.0832 0.5843 0.9082 0.8588 0.4821 0.7059 1.4043 0.7882 0.9575 0.4728 0.6828 0.5604 0.5504 0.5164 0.8210 1.1576 1.3617 1.1977 1.8450 1.3500 0.9882 0.5028 0.6242 0.9466 0.5209 0.9876 0.6674 1.2607 0.8675 0.6141 0.8695 0.5878 0.4638
0.6132 0.6712 0.9458 0.8831 1.0070 0.7464 0.5772 0.5985 0.5048 0.5016 0.5419 0.6589 0.8952 0.9514 0.8251 1.2201 0.6963 0.9348 0.8768 0.5150 0.9716 0.7034 0.8910 1.2332 0.8270 0.9310 1.0447 0.5732 0.8864 0.8508 0.4612 0.6731 1.3995 0.7489 0.9230 0.4582 0.6225 0.5500 0.5488 0.5133 0.7829 1.0957 1.3107 1.1359 1.7735 1.2628 0.9300 0.4953 0.5993 0.9413 0.5119 0.9478 0.6630 1.2313 0.8591 0.5965 0.8480 0.5847 0.4594
0.5951 0.6214 0.9294 0.8136 0.9419 0.7232 0.5666 0.5801 0.4798 0.4880 0.5439 0.6177 0.8419 0.9197 0.8053 1.1753 0.6768 0.8953 0.8277 0.5067 0.8990 0.6690 0.8115 1.0941 0.8049 0.8802 0.9712 0.5595 0.8436 0.8016 0.4656 0.6684 1.3017 0.7439 0.8818 0.4495 0.6280 0.5367 0.5340 0.5063 0.7387 1.0598 1.2466 1.1170 1.7166 1.2254 0.9083 0.4751 0.5937 0.8617 0.5043 0.9017 0.6245 1.1202 0.8086 0.5864 0.7821 0.5701 0.4456
0.6283 0.6154 0.9098 0.7982 0.9531 0.7396 0.5382 0.5728 0.4504 0.4731 0.5392 0.6104 0.8305 0.8923 0.7659 1.1401 0.6637 0.8373 0.7985 0.4852 0.8986 0.6362 0.8027 1.1143 0.7696 0.8521 0.9565 0.5309 0.8426 0.8575 0.4671 0.6640 1.2948 0.7490 0.8942 0.4469 0.6038 0.4906 0.5275 0.4965 0.7179 1.0309 1.2228 1.0744 1.6631 1.1616 0.8468 0.4681 0.5856 0.8577 0.4647 0.8814 0.6158 1.1186 0.7880 0.5671 0.7615 0.5498 0.4453
0.6207 0.5935 0.8985 0.7998 0.9112 0.6920 0.5361 0.5658 0.4404 0.4606 0.5134 0.5743 0.8170 0.8591 0.7232 1.0839 0.6423 0.8395 0.7503 0.4768 0.8316 0.6149 0.7911 1.1080 0.7343 0.8458 0.9745 0.5183 0.8548 0.8423 0.4373 0.6340 1.2777 0.7613 0.8590 0.4359 0.6099 0.4836 0.5127 0.4767 0.6800 0.9980 1.1346 1.0217 1.6422 1.1245 0.8166 0.4413 0.5578 0.8318 0.4840 0.8569 0.6225 1.1520 0.7616 0.5419 0.7721 0.5504 0.4243
0.5952 0.5663 0.8540 0.8143 0.9444 0.6835 0.5295 0.5608 0.4430 0.4436 0.5016 0.5601 0.7965 0.8298 0.7286 1.1086 0.6060 0.8036 0.7740 0.4786 0.8226 0.6335 0.7910 1.0891 0.6991 0.8377 0.9737 0.5129 0.8537 0.7989 0.4461 0.6192 1.2716 0.7576 0.8496 0.4216 0.6183 0.4668 0.4885 0.4548 0.6849 0.9658 1.1136 1.0166 1.5767 1.1112 0.8034 0.4323 0.5701 0.8292 0.4619 0.8545 0.5952 1.1435 0.7281 0.5601 0.7616 0.5270 0.4382
0.5855 0.5585 0.8508 0.7996 0.9442 0.6698 0.4993 0.5510 0.4375 0.4451 0.4810 0.5488 0.7817 0.7949 0.6901 1.0326 0.6019 0.8112 0.8153 0.4470 0.8200 0.6355 0.7976 1.1078 0.7072 0.8016 1.0042 0.5227 0.8829 0.7710 0.4163 0.5947 1.2917 0.7266 0.8589 0.4017 0.5878 0.4755 0.4857 0.4285 0.6798 0.9510 1.0755 0.9529 1.5020 1.0941 0.8235 0.4382 0.5492 0.8714 0.4311 0.8116 0.5892 1.1090 0.7401 0.5444 0.7847 0.4933 0.4128
0.5860 0.5548 0.8181 0.7470 0.8768 0.6632 0.4876 0.5199 0.4300 0.4315 0.4734 0.5353 0.7574 0.8109 0.6715 0.9713 0.5734 0.7333 0.7692 0.4333 0.8036 0.6100 0.7534 1.0831 0.6724 0.7739 0.9469 0.4803 0.8194 0.7930 0.3926 0.6030 1.1934 0.7041 0.8044 0.4024 0.5772 0.4488 0.4704 0.4274 0.6654 0.9336 1.0895 0.9593 1.4057 1.0027 0.7614 0.4072 0.5155 0.8447 0.4416 0.8129 0.5910 1.0739 0.6920 0.5236 0.7285 0.4971 0.4092
0.5847 0.5539 0.8172 0.7645 0.8732 0.6074 0.4684 0.5077 0.4084 0.4209 0.4500 0.5153 0.7239 0.7493 0.6635 0.9670 0.5668 0.7337 0.7054 0.4485 0.7694 0.5988 0.7398 1.0900 0.6984 0.8084 0.9555 0.4807 0.8299 0.7792 0.4122 0.5628 1.2517 0.7119 0.7916 0.3793 0.5496 0.4463 0.4573 0.4101 0.6417 0.8892 0.9994 0.8919 1.3891 1.0014 0.7385 0.4058 0.5116 0.8129 0.4367 0.8097 0.5753 1.1283 0.7252 0.5256 0.7279 0.4692 0.4080
0.5528 0.5261 0.7969 0.7051 0.8249 0.6252 0.4575 0.5178 0.4005 0.4202 0.4384 0.5002 0.7057 0.7452 0.6422 0.9409 0.5450 0.7201 0.6971 0.4190 0.7722 0.5896 0.7451 1.0614 0.6645 0.7393 0.9397 0.4692 0.7845 0.7530 0.4078 0.5721 1.1449 0.6940 0.7810 0.3779 0.5265 0.4410 0.4485 0.4010 0.6012 0.8568 0.9939 0.8678 1.3453 0.9848 0.7250 0.3970 0.4939 0.7879 0.4266 0.7781 0.5777 1.0786 0.6751 0.5066 0.7118 0.4722 0.4072
0.5638 0.5333 0.7739 0.7288 0.8736 0.5935 0.4577 0.5026 0.4033 0.4043 0.4328 0.4765 0.6816 0.7198 0.6320 0.9425 0.5399 0.6805 0.6834 0.4021 0.7484 0.5662 0.6899 1.0407 0.6369 0.7607 0.9132 0.4778 0.7777 0.7596 0.3991 0.5582 1.1576 0.7259 0.7599 0.3793 0.5515 0.4157 0.4271 0.3901 0.5978 0.8211 0.9512 0.8627 1.3327 0.9546 0.6963 0.3904 0.4932 0.7462 0.4077 0.7660 0.5623 1.0732 0.6734 0.5362 0.7167 0.4659 0.4070
0.5472 0.5266 0.7255 0.7496 0.8227 0.5744 0.4641 0.5039 0.3842 0.3856 0.4083 0.4703 0.6733 0.7112 0.6091 0.8874 0.5127 0.6839 0.7552 0.4208 0.7578 0.5729 0.7111 1.1279 0.6497 0.6983 0.9525 0.4765 0.7814 0.7465 0.3930 0.5356 1.1687 0.6928 0.7043 0.3690 0.5324 0.3997 0.4361 0.3774 0.5775 0.7885 0.9474 0.8344 1.2612 0.9342 0.7198 0.3661 0.4871 0.8161 0.4064 0.7715 0.5562 1.0691 0.6608 0.4953 0.7270 0.4754 0.3933
0.5443 0.5083 0.7569 0.7009 0.8076 0.5778 0.4341 0.4807 0.3965 0.3957 0.4244 0.4768 0.6784 0.7048 0.5966 0.8543 0.4902 0.6739 0.7216 0.3928 0.7208 0.5516 0.6874 1.0503 0.6246 0.6927 0.9202 0.4479 0.7820 0.7323 0.3837 0.5423 1.1005 0.7179 0.7368 0.3478 0.5346 0.4061 0.4251 0.3974 0.5774 0.7838 0.9264 0.8005 1.1913 0.9060 0.6892 0.3586 0.4629 0.7907 0.3848 0.7165 0.5420 1.0275 0.6657 0.4786 0.7028 0.4514 0.3877
0.5305 0.5034 0.7234 0.7129 0.8439 0.5708 0.4252 0.4826 0.3874 0.3909 0.3972 0.4674 0.6467 0.6765 0.5756 0.8364 0.4850 0.6372 0.7258 0.3721 0.7257 0.5633 0.6820 1.0355 0.6062 0.6834 0.8955 0.4475 0.7942 0.7138 0.3740 0.5239 1.1128 0.7089 0.7145 0.3453 0.5169 0.4123 0.4117 0.3709 0.5644 0.7812 0.8918 0.7822 1.1836 0.8863 0.6631 0.3524 0.4664 0.7825 0.3898 0.7284 0.5363 1.0078 0.6339 0.4837 0.6794 0.4521 0.3874
0.5343 0.4737 0.7042 0.6752 0.7799 0.5357 0.4260 0.4608 0.3704 0.3868 0.4096 0.4506 0.6297 0.6476 0.5693 0.8323 0.4812 0.6222 0.6762 0.3888 0.6943 0.5201 0.6583 1.0337 0.5918 0.6797 0.9323 0.4286 0.7631 0.7055 0.3696 0.4980 1.0711 0.6853 0.6821 0.3450 0.5169 0.3976 0.4139 0.3699 0.5511 0.7340 0.8381 0.7601 1.1675 0.8502 0.6464 0.3602 0.4542 0.7307 0.3783 0.7036 0.5597 1.0390 0.6109 0.4755 0.6772 0.4310 0.3792
0.5031 0.4760 0.6985 0.6725 0.7546 0.5415 0.4099 0.4614 0.3618 0.3703 0.3997 0.4311 0.6022 0.6373 0.5397 0.7808 0.4546 0.6296 0.6525 0.3774 0.6727 0.5146 0.6053 0.9830 0.5760 0.6429 0.8691 0.4241 0.7246 0.6922 0.3574 0.4917 1.0683 0.6595 0.6781 0.3349 0.4862 0.3866 0.3991 0.3589 0.5226 0.7086 0.8338 0.7127 1.0862 0.8384 0.6247 0.3421 0.4439 0.7195 0.3591 0.6650 0.5235 0.9746 0.6177 0.4613 0.6455 0.4190 0.3658
0.5182 0.4707 0.6930 0.6690 0.7728 0.5245 0.4081 0.4381 0.3605 0.3555 0.3808 0.4127 0.6023 0.6120 0.5168 0.7477 0.4472 0.5947 0.5909 0.3621 0.6470 0.4806 0.5633 0.9215 0.5516 0.6425 0.8364 0.4095 0.7573 0.7153 0.3607 0.4989 1.0854 0.6610 0.6698 0.3260 0.4667 0.3739 0.3792 0.3454 0.5254 0.6885 0.8065 0.7249 1.0819 0.7807 0.5898 0.3313 0.4246 0.6373 0.3525 0.6613 0.5133 0.9569 0.5963 0.4488 0.6225 0.4089 0.3658
0.5115 0.4626 0.6597 0.6678 0.7515 0.5394 0.3926 0.4610 0.3447 0.3524 0.3739 0.4080 0.5879 0.6145 0.5207 0.7753 0.4442 0.5977 0.6056 0.3608 0.6424 0.4830 0.5604 0.9623 0.5390 0.6411 0.8361 0.4250 0.7539 0.6751 0.3628 0.4783 1.0655 0.6714 0.6525 0.3230 0.4643 0.3658 0.3787 0.3410 0.5060 0.6872 0.7919 0.7086 1.0913 0.7883 0.5885 0.3254 0.4133 0.6862 0.3628 0.6352 0.5110 0.9582 0.5875 0.4846 0.6304 0.3964 0.3672
0.5078 0.4452 0.6713 0.6933 0.7652 0.5038 0.3871 0.4300 0.3358 0.3555 0.3632 0.3836 0.5845 0.5775 0.5116 0.7284 0.4370 0.5732 0.5928 0.3491 0.6113 0.4626 0.5868 0.9077 0.5250 0.6136 0.8180 0.3962 0.7932 0.6792 0.3595 0.4702 1.1305 0.6509 0.6773 0.3097 0.4642 0.3540 0.3674 0.3244 0.4864 0.6628 0.7400 0.6780 1.0301 0.7542 0.5759 0.3232 0.4091 0.6507 0.3507 0.6254 0.4897 0.9271 0.5729 0.4427 0.6060 0.3869 0.3610
0.4966 0.4248 0.6553 0.6935 0.7419 0.5014 0.3783 0.4256 0.3353 0.3403 0.3551 0.3888 0.5639 0.5410 0.4869 0.7101 0.4344 0.6127 0.6143 0.3362 0.5982 0.4901 0.5710 0.9268 0.5213 0.6045 0.7863 0.3849 0.7782 0.6665 0.3427 0.4592 1.0911 0.6108 0.6326 0.3167 0.4589 0.3428 0.3638 0.3240 0.4819 0.6249 0.7342 0.6640 1.0088 0.7603 0.5997 0.3084 0.4084 0.6636 0.3456 0.6531 0.4862 0.8876 0.5572 0.4389 0.5990 0.3854 0.3493
0.4831 0.4455 0.6362 0.5966 0.7066 0.4949 0.3736 0.4183 0.3526 0.3367 0.3493 0.3876 0.5452 0.5631 0.4893 0.6974 0.4301 0.5679 0.6145 0.3431 0.6162 0.4477 0.5655 0.8974 0.5258 0.5948 0.7758 0.3924 0.6812 0.6545 0.3336 0.4575 0.9667 0.6003 0.6084 0.3064 0.4733 0.3454 0.3625 0.3177 0.4787 0.6316 0.7178 0.6426 1.0140 0.7302 0.5899 0.3064 0.3945 0.6482 0.3275 0.6165 0.4858 0.8587 0.5768 0.4349 0.6117 0.3736 0.3494
0.4909 0.4242 0.6167 0.6048 0.6870 0.4719 0.3597 0.4198 0.3384 0.3200 0.3512 0.3817 0.5465 0.5607 0.4676 0.6897 0.4085 0.5576 0.6037 0.3340 0.6102 0.4624 0.5896 0.9229 0.5221 0.5895 0.8181 0.3939 0.7147 0.6722 0.3492 0.4361 0.9694 0.6005 0.5942 0.2979 0.4480 0.3264 0.3445 0.3186 0.4791 0.6283 0.7384 0.6591 0.9898 0.7319 0.5680 0.3121 0.3983 0.6652 0.3217 0.6142 0.4956 0.8986 0.5541 0.4406 0.6188 0.3720 0.3480
0.4612 0.4175 0.6342 0.6139 0.6709 0.4595 0.3658 0.3997 0.3216 0.3120 0.3431 0.3728 0.5346 0.5535 0.4688 0.6762 0.4103 0.5598 0.6003 0.3289 0.5933 0.4407 0.5840 0.9317 0.4827 0.5540 0.8366 0.3809 0.7106 0.6324 0.3297 0.4357 0.9894 0.5782 0.6024 0.2882 0.4304 0.3292 0.3285 0.3028 0.4643 0.6105 0.7284 0.6408 0.9678 0.7273 0.5796 0.3081 0.3773 0.6236 0.3287 0.5942 0.4742 0.9342 0.5023 0.4122 0.6143 0.3604 0.3319
0.4827 0.4064 0.5808 0.5781 0.6314 0.4563 0.3401 0.3873 0.3076 0.3234 0.3378 0.3606 0.5176 0.5260 0.4488 0.6473 0.3841 0.5252 0.5567 0.3101 0.5804 0.4416 0.5544 0.8439 0.4740 0.5517 0.7243 0.3794 0.6820 0.6642 0.3340 0.4230 0.9164 0.5860 0.5515 0.2888 0.4037 0.3236 0.3315 0.3048 0.4413 0.5823 0.6804 0.6185 0.9269 0.6915 0.5310 0.2899 0.3740 0.6048 0.3154 0.5740 0.4415 0.8292 0.5254 0.4349 0.5794 0.3628 0.3588
0.4509 0.3901 0.5973 0.5804 0.6623 0.4507 0.3508 0.3739 0.3055 0.3022 0.3286 0.3584 0.5060 0.4980 0.4547 0.6567 0.3932 0.5276 0.5922 0.3171 0.5605 0.4361 0.5854 0.8414 0.4680 0.5407 0.7442 0.3688 0.6717 0.6186 0.3274 0.4132 0.9501 0.5525 0.5531 0.2741 0.4124 0.3224 0.3251 0.2907 0.4399 0.5643 0.6521 0.6189 0.9440 0.6825 0.5454 0.2949 0.3863 0.5807 0.3080 0.5728 0.4561 0.8352 0.5009 0.3966 0.5919 0.3447 0.3237
0.4561 0.4012 0.5747 0.6244 0.6747 0.4363 0.3361 0.3780 0.2965 0.3122 0.3242 0.3540 0.5124 0.5132 0.4296 0.6299 0.3841 0.5330 0.5924 0.3146 0.5561 0.4341 0.5478 0.8731 0.4630 0.5313 0.7741 0.3703 0.7153 0.6397 0.3143 0.4073 0.9905 0.5523 0.5423 0.2748 0.4144 0.3002 0.3256 0.2968 0.4440 0.5809 0.6738 0.6098 0.9177 0.6883 0.5408 0.2863 0.3776 0.6447 0.2942 0.5614 0.4592 0.8324 0.5071 0.4018 0.5948 0.3352 0.3298
0.4640 0.3960 0.5747 0.6054 0.6385 0.4246 0.3244 0.3636 0.3096 0.3139 0.3235 0.3483 0.5096 0.5026 0.4302 0.6258 0.3637 0.5125 0.5529 0.3096 0.5368 0.4336 0.5307 0.8630 0.4457 0.5419 0.7957 0.3660 0.7070 0.6531 0.3201 0.4032 0.9755 0.5421 0.5340 0.2659 0.4140 0.3088 0.3217 0.2958 0.4395 0.5725 0.6622 0.5850 0.8727 0.6726 0.5179 0.2786 0.3667 0.6171 0.3003 0.5549 0.4400 0.8439 0.5047 0.4141 0.5984 0.3400 0.3277
0.4486 0.3820 0.5520 0.5386 0.6196 0.4200 0.3223 0.3668 0.3039 0.3048 0.3282 0.3441 0.4872 0.4885 0.4190 0.6080 0.3596 0.4911 0.5071 0.3039 0.5440 0.4019 0.4974 0.8175 0.4470 0.5036 0.6936 0.3496 0.6195 0.6223 0.3229 0.4023 0.8711 0.5142 0.5106 0.2657 0.4044 0.2986 0.3284 0.3001 0.4391 0.5505 0.6499 0.5983 0.8691 0.6332 0.4909 0.2785 0.3419 0.5454 0.2882 0.5531 0.4352 0.7649 0.4758 0.3902 0.5286 0.3320 0.3144
0.4319 0.3783 0.5458 0.5328 0.6076 0.4202 0.3315 0.3724 0.2979 0.3109 0.3344 0.3318 0.4759 0.4773 0.4081 0.5873 0.3628 0.4722 0.5229 0.3012 0.5195 0.3913 0.4828 0.7498 0.4447 0.4932 0.6594 0.3528 0.6149 0.6058 0.3058 0.3975 0.8613 0.5305 0.5155 0.2646 0.4180 0.3020 0.3323 0.3006 0.4099 0.5521 0.6182 0.5770 0.8266 0.5996 0.4873 0.2743 0.3613 0.5540 0.2856 0.5168 0.4281 0.7309 0.4660 0.3843 0.5322 0.3198 0.3062
0.4385 0.3642 0.5384 0.5449 0.6013 0.4172 0.3279 0.3599 0.2880 0.3293 0.3421 0.3367 0.4745 0.4891 0.4102 0.5865 0.3514 0.4818 0.5291 0.2997 0.5154 0.4092 0.5057 0.7706 0.4310 0.4916 0.6531 0.3379 0.6468 0.6132 0.3050 0.3813 0.8876 0.5459 0.5024 0.2739 0.3936 0.3049 0.3441 0.3036 0.4081 0.5345 0.6358 0.5691 0.8364 0.6049 0.4882 0.2804 0.3515 0.5585 0.2690 0.5235 0.4212 0.7364 0.4640 0.3701 0.5099 0.3113 0.3078
0.4310 0.3569 0.5300 0.5135 0.5732 0.3942 0.3213 0.3674 0.2890 0.3259 0.3521 0.3287 0.4577 0.4606 0.3943 0.5827 0.3435 0.4696 0.5168 0.3064 0.4941 0.3905 0.4919 0.7403 0.4261 0.4811 0.6176 0.3410 0.6391 0.6177 0.3041 0.3630 0.8653 0.5370 0.5121 0.2632 0.3855 0.3055 0.3347 0.3143 0.4021 0.5103 0.6022 0.5537 0.8148 0.5944 0.4646 0.2846 0.3431 0.5622 0.2739 0.4987 0.4229 0.6970 0.4609 0.3741 0.5006 0.3079 0.3009
0.4092 0.3565 0.5263 0.5438 0.5915 0.4014 0.3078 0.3492 0.2854 0.3383 0.3576 0.3195 0.4685 0.4473 0.3883 0.5811 0.3496 0.4492 0.5127 0.2965 0.5036 0.3958 0.4914 0.7721 0.4166 0.4636 0.6277 0.3329 0.6213 0.5705 0.2908 0.3624 0.9024 0.5116 0.4945 0.2512 0.3672 0.2950 0.3479 0.3135 0.4015 0.5293 0.5799 0.5364 0.8019 0.5961 0.4673 0.2854 0.3412 0.5880 0.2814 0.4898 0.4111 0.6846 0.4535 0.3711 0.4881 0.3078 0.2838
0.4364 0.3489 0.5172 0.5547 0.5848 0.3904 0.3015 0.3536 0.3009 0.3299 0.3485 0.3231 0.4569 0.4559 0.3776 0.5560 0.3406 0.4694 0.4993 0.3003 0.4792 0.3936 0.4742 0.7903 0.3961 0.4594 0.6270 0.3283 0.6567 0.5951 0.3049 0.3781 0.8919 0.5262 0.4732 0.2483 0.3769 0.3098 0.3491 0.3090 0.3988 0.5225 0.5901 0.5280 0.7834 0.5887 0.4719 0.2833 0.3183 0.5979 0.2748 0.4906 0.4028 0.6948 0.4328 0.3679 0.4812 0.3060 0.3096
0.4203 0.3436 0.4872 0.5404 0.5787 0.3739 0.2894 0.3457 0.2899 0.3278 0.3551 0.3140 0.4457 0.4639 0.3792 0.5447 0.3357 0.4684 0.5190 0.3021 0.4829 0.4015 0.4551 0.8089 0.3932 0.4524 0.6190 0.3245 0.6594 0.5843 0.2924 0.3558 0.8561 0.4915 0.4602 0.2470 0.3839 0.2866 0.3391 0.3060 0.3949 0.5206 0.5851 0.5326 0.7874 0.5958 0.4605 0.2916 0.3254 0.6384 0.2725 0.4880 0.3954 0.6805 0.4329 0.3535 0.4812 0.2973 0.2957
0.4205 0.3389 0.4727 0.5136 0.5847 0.3727 0.2896 0.3323 0.2724 0.3255 0.3465 0.3094 0.4506 0.4401 0.3665 0.5414 0.3358 0.4552 0.5246 0.3035 0.4785 0.4093 0.4698 0.7751 0.3865 0.4512 0.5904 0.3145 0.6331 0.5959 0.2851 0.3490 0.8268 0.5058 0.4465 0.2429 0.3722 0.2860 0.3428 0.3044 0.3873 0.5038 0.5819 0.5192 0.7732 0.5829 0.4568 0.2762 0.3338 0.6314 0.2640 0.4823 0.4035 0.6480 0.4280 0.3407 0.4683 0.2965 0.2924
0.4096 0.3227 0.4819 0.4684 0.5499 0.3654 0.2881 0.3382 0.2768 0.3131 0.3423 0.3005 0.4240 0.4569 0.3537 0.5143 0.3305 0.4436 0.4849 0.3034 0.4566 0.3726 0.4574 0.7755 0.3845 0.4302 0.5773 0.3109 0.5751 0.5633 0.2931 0.3449 0.7424 0.5027 0.4695 0.2363 0.3751 0.2815 0.3414 0.2918 0.3772 0.5022 0.5842 0.5106 0.7455 0.5572 0.4428 0.2810 0.3132 0.6048 0.2640 0.4535 0.3930 0.6250 0.4202 0.3352 0.4404 0.2941 0.2837
0.3988 0.3194 0.4713 0.4701 0.5272 0.3567 0.2781 0.3278 0.2690 0.3000 0.3310 0.2908 0.4175 0.4356 0.3539 0.5264 0.3263 0.4073 0.4725 0.2796 0.4522 0.3721 0.4197 0.7737 0.3721 0.4455 0.5585 0.3072 0.5902 0.5703 0.2844 0.3311 0.7964 0.4931 0.4322 0.2299 0.3486 0.2720 0.3297 0.2787 0.3656 0.4662 0.5629 0.5156 0.7632 0.5333 0.4238 0.2644 0.3074 0.5746 0.2594 0.4551 0.3999 0.6401 0.4057 0.3374 0.4314 0.2882 0.2886
0.3913 0.3044 0.4492 0.4651 0.5185 0.3324 0.2667 0.3190 0.2521 0.2853 0.3157 0.2794 0.4156 0.4250 0.3448 0.4948 0.3056 0.4074 0.4658 0.2731 0.4472 0.3492 0.4202 0.7475 0.3677 0.4195 0.5481 0.3022 0.5605 0.5650 0.2858 0.3106 0.7499 0.4649 0.4140 0.2224 0.3390 0.2464 0.3064 0.2682 0.3588 0.4730 0.5475 0.5038 0.7199 0.5024 0.4043 0.2567 0.3000 0.5397 0.2646 0.4461 0.3783 0.6121 0.3893 0.3390 0.4460 0.2823 0.2823
0.4011 0.3075 0.4603 0.4463 0.4946 0.3398 0.2595 0.3158 0.2517 0.2823 0.3160 0.2939 0.3977 0.4196 0.3370 0.5061 0.3032 0.4288 0.5177 0.2836 0.4285 0.3762 0.4401 0.7819 0.3517 0.4067 0.5823 0.2917 0.5905 0.5753 0.2774 0.3118 0.7516 0.4723 0.4142 0.2208 0.3321 0.2556 0.3035 0.2692 0.3642 0.4586 0.5433 0.4867 0.7187 0.5497 0.4367 0.2577 0.3103 0.6035 0.2510 0.4333 0.3873 0.6220 0.3973 0.3238 0.4484 0.2659 0.2778
0.3894 0.3040 0.4326 0.4330 0.4897 0.3422 0.2586 0.3139 0.2530 0.2706 0.2948 0.2743 0.4029 0.3997 0.3299 0.4730 0.2970 0.4161 0.5150 0.2688 0.4382 0.3416 0.4111 0.7405 0.3556 0.3956 0.5449 0.2840 0.5794 0.5580 0.2648 0.3024 0.7164 0.4852 0.4039 0.2136 0.3408 0.2400 0.2971 0.2539 0.3540 0.4364 0.5226 0.4693 0.6786 0.5078 0.4268 0.2425 0.2999 0.5345 0.2481 0.4210 0.3731 0.5971 0.3830 0.3135 0.4331 0.2671 0.2677
0.3936 0.3047 0.4213 0.4435 0.4943 0.3299 0.2539 0.2990 0.2513 0.2561 0.2759 0.2636 0.3968 0.3985 0.3223 0.4705 0.2900 0.4077 0.4517 0.2571 0.4251 0.3378 0.4146 0.7254 0.3564 0.3974 0.5500 0.2786 0.5590 0.5432 0.2651 0.2991 0.7088 0.4801 0.4016 0.2040 0.3390 0.2444 0.2675 0.2332 0.3416 0.4486 0.4997 0.4538 0.6659 0.4997 0.4096 0.2374 0.2925 0.5129 0.2340 0.4171 0.3781 0.5846 0.4027 0.3106 0.4204 0.2565 0.2647
0.3878 0.2872 0.4341 0.4314 0.5249 0.3070 0.2470 0.3050 0.2371 0.2394 0.2634 0.2614 0.3926 0.3860 0.3191 0.4538 0.2689 0.4033 0.4655 0.2460 0.4103 0.3256 0.4059 0.6962 0.3415 0.3933 0.5319 0.2747 0.5519 0.5567 0.2606 0.2940 0.7169 0.4799 0.3902 0.2058 0.3380 0.2326 0.2573 0.2265 0.3330 0.4308 0.5000 0.4553 0.6383 0.4862 0.3956 0.2261 0.2833 0.5189 0.2316 0.3936 0.3627 0.5843 0.3787 0.3088 0.4112 0.2488 0.2655
0.3889 0.2797 0.4226 0.4309 0.5001 0.3007 0.2369 0.3096 0.2456 0.2466 0.2594 0.2448 0.3851 0.3802 0.3162 0.4617 0.2767 0.4001 0.4827 0.2477 0.3872 0.3178 0.4063 0.7158 0.3200 0.3791 0.5345 0.2668 0.5735 0.5411 0.2592 0.2808 0.7297 0.5076 0.3854 0.1980 0.3385 0.2309 0.2508 0.2252 0.3228 0.4184 0.4759 0.4442 0.6540 0.4954 0.3996 0.2200 0.2859 0.5278 0.2237 0.4053 0.3562 0.5738 0.3615 0.3023 0.4141 0.2435 0.2489
0.3838 0.2823 0.4023 0.4142 0.4833 0.2971 0.2396 0.2847 0.2339 0.2277 0.2403 0.2513 0.3708 0.3651 0.2990 0.4464 0.2607 0.3669 0.4317 0.2343 0.3839 0.3309 0.3566 0.6880 0.3257 0.3730 0.4923 0.2641 0.5452 0.5341 0.2504 0.2883 0.6763 0.5126 0.3740 0.1897 0.3245 0.2230 0.2330 0.2124 0.3211 0.4034 0.4776 0.4248 0.6021 0.4611 0.3638 0.2082 0.2781 0.5099 0.2185 0.3994 0.3446 0.5373 0.3660 0.3004 0.3944 0.2325 0.2495
0.3876 0.2758 0.3846 0.4048 0.4545 0.2856 0.2360 0.2781 0.2369 0.2257 0.2351 0.2336 0.3719 0.3609 0.2906 0.4274 0.2586 0.3617 0.4243 0.2302 0.3804 0.3277 0.3809 0.6554 0.3179 0.3730 0.4649 0.2580 0.5436 0.5338 0.2543 0.2732 0.6451 0.4811 0.3617 0.1850 0.3085 0.2125 0.2363 0.2089 0.3073 0.3926 0.4571 0.4078 0.5969 0.4418 0.3515 0.2037 0.2702 0.4836 0.2180 0.3964 0.3509 0.5181 0.3593 0.2983 0.3763 0.2335 0.2566
0.3717 0.2769 0.3717 0.3908 0.4480 0.2964 0.2319 0.2773 0.2336 0.2250 0.2305 0.2389 0.3631 0.3462 0.2848 0.4237 0.2542 0.3665 0.4207 0.2240 0.3761 0.3177 0.3740 0.6634 0.2985 0.3560 0.4983 0.2524 0.5463 0.5138 0.2501 0.2766 0.6371 0.4893 0.3662 0.1832 0.3115 0.2178 0.2267 0.2010 0.3138 0.3934 0.4453 0.4000 0.5815 0.4612 0.3627 0.2043 0.2654 0.4960 0.2108 0.3760 0.3319 0.5333 0.3414 0.2863 0.3796 0.2246 0.2476
0.3633 0.2620 0.3777 0.3774 0.4408 0.2908 0.2297 0.2813 0.2301 0.2139 0.2236 0.2292 0.3678 0.3480 0.2897 0.4365 0.2565 0.3787 0.4544 0.2236 0.3727 0.3125 0.3744 0.6418 0.3019 0.3485 0.4882 0.2484 0.5240 0.5271 0.2473 0.2712 0.6243 0.4940 0.3553 0.1775 0.3078 0.2074 0.2242 0.1995 0.3041 0.3902 0.4498 0.4056 0.5999 0.4741 0.3872 0.1937 0.2638 0.4962 0.2086 0.3578 0.3259 0.5039 0.3502 0.2869 0.3854 0.2200 0.2409
0.3691 0.2569 0.3622 0.3650 0.4351 0.2686 0.2316 0.2676 0.2302 0.2126 0.2198 0.2249 0.3538 0.3295 0.2733 0.4171 0.2538 0.3546 0.4369 0.2219 0.3582 0.3019 0.3712 0.7037 0.2961 0.3387 0.5287 0.2544 0.5209 0.5092 0.2433 0.2474 0.5937 0.4994 0.3524 0.1813 0.3059 0.2090 0.2189 0.1946 0.2935 0.3674 0.4107 0.3842 0.5872 0.4652 0.3787 0.1898 0.2564 0.5077 0.1997 0.3726 0.3239 0.5475 0.3409 0.2807 0.3959 0.2202 0.2422
0.3616 0.2691 0.3619 0.3682 0.4175 0.2751 0.2235 0.2716 0.2298 0.2073 0.2162 0.2179 0.3534 0.3352 0.2795 0.4246 0.2464 0.3962 0.5154 0.2179 0.3536 0.3160 0.4030 0.7069 0.2913 0.3258 0.5198 0.2502 0.5305 0.4963 0.2440 0.2612 0.6069 0.5262 0.3391 0.1802 0.3055 0.2016 0.2141 0.1883 0.2929 0.3691 0.4159 0.3936 0.5761 0.4969 0.4087 0.1915 0.2684 0.5644 0.1968 0.3540 0.3080 0.5238 0.3410 0.2726 0.3967 0.2127 0.2330
0.3654 0.2571 0.3576 0.3658 0.4262 0.2627 0.2184 0.2649 0.2240 0.1981 0.2106 0.2170 0.3485 0.3231 0.2596 0.3964 0.2362 0.3579 0.4504 0.2023 0.3399 0.3015 0.3731 0.6854 0.2803 0.3297 0.4923 0.2413 0.5409 0.4877 0.2392 0.2528 0.6090 0.5242 0.3340 0.1748 0.3022 0.2000 0.2051 0.1833 0.2851 0.3614 0.4095 0.3717 0.5474 0.4566 0.3668 0.1854 0.2547 0.4906 0.1927 0.3544 0.3255 0.5183 0.3272 0.2701 0.3732 0.2053 0.2351
0.3591 0.2441 0.3513 0.3747 0.4131 0.2571 0.2162 0.2734 0.2190 0.2011 0.2067 0.2165 0.3372 0.3153 0.2578 0.4079 0.2351 0.3803 0.4704 0.2025 0.3266 0.3067 0.3853 0.7203 0.2730 0.3195 0.5010 0.2464 0.5279 0.4819 0.2390 0.2363 0.5987 0.4874 0.3310 0.1736 0.2899 0.1949 0.2093 0.1842 0.2786 0.3631 0.4085 0.3832 0.5580 0.4844 0.3834 0.1797 0.2514 0.5373 0.1910 0.3565 0.3143 0.5227 0.3168 0.2671 0.3885 0.1982 0.2254
0.3533 0.2385 0.3361 0.3639 0.3874 0.2623 0.2153 0.2789 0.2258 0.1984 0.2113 0.2102 0.3421 0.3153 0.2551 0.3945 0.2324 0.3349 0.4239 0.1989 0.3171 0.2801 0.3515 0.6806 0.2635 0.3176 0.4903 0.2297 0.5380 0.4837 0.2345 0.2370 0.5743 0.5333 0.3239 0.1695 0.3012 0.1897 0.2054 0.1805 0.2803 0.3583 0.4123 0.3668 0.5355 0.4453 0.3527 0.1797 0.2452 0.5019 0.1913 0.3276 0.3270 0.4987 0.3142 0.2606 0.3641 0.1987 0.2251
0.3502 0.2427 0.3475 0.3689 0.3882 0.2566 0.2114 0.2567 0.2311 0.1954 0.2012 0.2065 0.3534 0.3184 0.2580 0.3918 0.2263 0.3832 0.5987 0.2024 0.3241 0.3287 0.3725 0.7027 0.2662 0.3132 0.4865 0.2424 0.5505 0.4745 0.2324 0.2328 0.6173 0.5677 0.3200 0.1666 0.3008 0.1872 0.1999 0.1717 0.2836 0.3535 0.3991 0.3570 0.5257 0.4671 0.4110 0.1790 0.2743 0.6208 0.1879 0.3360 0.3122 0.4781 0.3235 0.2606 0.3872 0.1957 0.2213
0.3631 0.2482 0.3471 0.3675 0.4252 0.2459 0.2051 0.2573 0.2208 0.1939 0.1978 0.1985 0.3432 0.3243 0.2540 0.3851 0.2292 0.3692 0.5046 0.1875 0.3202 0.3037 0.3693 0.6527 0.2600 0.3027 0.4726 0.2223 0.5498 0.4712 0.2304 0.2306 0.6312 0.5482 0.3215 0.1643 0.2998 0.1840 0.1921 0.1723 0.2750 0.3576 0.3922 0.3428 0.5293 0.4461 0.3903 0.1735 0.2491 0.5262 0.1796 0.3304 0.3057 0.4716 0.3220 0.2547 0.3680 0.1926 0.2235
0.3627 0.2373 0.3291 0.3356 0.3975 0.2468 0.2045 0.2538 0.2328 0.1886 0.1862 0.1984 0.3430 0.2900 0.2433 0.3814 0.2079 0.3597 0.4428 0.1835 0.3089 0.2951 0.3733 0.7228 0.2580 0.2949 0.4797 0.2229 0.5489 0.4630 0.2289 0.2280 0.5972 0.5747 0.3152 0.1588 0.2951 0.1813 0.1822 0.1654 0.2747 0.3410 0.3605 0.3347 0.5051 0.4556 0.3561 0.1651 0.2371 0.5208 0.1792 0.3177 0.3124 0.4870 0.3007 0.2491 0.3535 0.1781 0.2202
0.3304 0.2258 0.3284 0.3407 0.3901 0.2357 0.2035 0.2498 0.2146 0.1805 0.1903 0.1930 0.3287 0.2923 0.2394 0.3639 0.2136 0.3482 0.4325 0.1898 0.3019 0.2758 0.3588 0.6536 0.2527 0.3032 0.4744 0.2249 0.5153 0.4458 0.2260 0.2299 0.5813 0.5415 0.3057 0.1542 0.2877 0.1750 0.1887 0.1638 0.2624 0.3352 0.3693 0.3294 0.4832 0.4348 0.3580 0.1675 0.2255 0.4879 0.1794 0.3205 0.2968 0.4821 0.2995 0.2471 0.3596 0.1804 0.2158
0.3436 0.2234 0.3192 0.3205 0.3733 0.2327 0.2026 0.2400 0.2243 0.1802 0.1910 0.1935 0.3348 0.2952 0.2364 0.3595 0.2109 0.3406 0.4483 0.1811 0.2971 0.2846 0.3677 0.6194 0.2413 0.3005 0.4531 0.2290 0.5210 0.4490 0.2318 0.2137 0.5624 0.5586 0.3142 0.1543 0.2844 0.1724 0.1810 0.1715 0.2711 0.3347 0.3673 0.3159 0.4829 0.4172 0.3522 0.1633 0.2318 0.4955 0.1699 0.3059 0.2939 0.4535 0.2958 0.2482 0.3593 0.1778 0.2164
0.3377 0.2263 0.3104 0.3322 0.3824 0.2341 0.1981 0.2497 0.2280 0.1736 0.1798 0.1957 0.3319 0.2874 0.2389 0.3716 0.2118 0.3242 0.4363 0.1801 0.2959 0.2737 0.3500 0.5894 0.2445 0.2899 0.4250 0.2252 0.5329 0.4382 0.2295 0.2228 0.5652 0.5769 0.3064 0.1506 0.2908 0.1759 0.1772 0.1584 0.2702 0.3340 0.3595 0.3294 0.4942 0.4103 0.3341 0.1584 0.2309 0.4790 0.1673 0.3081 0.2918 0.4305 0.2861 0.2410 0.3347 0.1752 0.2110
0.3379 0.2148 0.3123 0.3348 0.3802 0.2198 0.1950 0.2306 0.2205 0.1759 0.1832 0.1865 0.3356 0.2814 0.2346 0.3608 0.2084 0.3292 0.4332 0.1757 0.2874 0.2796 0.3528 0.6223 0.2362 0.2820 0.4338 0.2191 0.5582 0.4304 0.2048 0.2059 0.5747 0.6134 0.3016 0.1453 0.2781 0.1747 0.1755 0.1594 0.2594 0.3277 0.3596 0.3294 0.4841 0.4148 0.3315 0.1596 0.2224 0.5011 0.1651 0.2958 0.2980 0.4380 0.2749 0.2412 0.3468 0.1701 0.1983
0.3419 0.2134 0.3114 0.3231 0.3621 0.2182 0.1887 0.2409 0.2167 0.1775 0.1806 0.1884 0.3427 0.2796 0.2274 0.3457 0.1978 0.3741 0.5364 0.1729 0.2826 0.2877 0.3604 0.6653 0.2295 0.2748 0.4723 0.2069 0.5405 0.4420 0.2015 0.2045 0.5606 0.6345 0.2888 0.1467 0.2856 0.1630 0.1723 0.1618 0.2569 0.3132 0.3499 0.3197 0.4592 0.4271 0.3740 0.1592 0.2392 0.5535 0.1646 0.2955 0.2971 0.4536 0.2767 0.2414 0.3533 0.1731 0.2092
0.3459 0.2184 0.3114 0.3352 0.3879 0.2277 0.1807 0.2384 0.2304 0.1703 0.1785 0.1810 0.3417 0.2790 0.2232 0.3474 0.1951 0.3572 0.5073 0.1791 0.2810 0.2859 0.3781 0.6400 0.2232 0.2809 0.4638 0.2180 0.5777 0.4243 0.2168 0.2151 0.5922 0.6845 0.2930 0.1469 0.2919 0.1664 0.1709 0.1534 0.2587 0.3154 0.3405 0.3156 0.4520 0.4405 0.3672 0.1589 0.2327 0.5346 0.1637 0.2888 0.2867 0.4530 0.2790 0.2378 0.3495 0.1639 0.2053
0.3531 0.2088 0.3084 0.3171 0.3691 0.2078 0.1849 0.2292 0.2331 0.1648 0.1693 0.1756 0.3196 0.2721 0.2186 0.3345 0.1871 0.3163 0.4194 0.1679 0.2630 0.2626 0.3300 0.5793 0.2183 0.2707 0.4116 0.2107 0.5817 0.4430 0.2038 0.1989 0.5714 0.6579 0.2802 0.1408 0.2953 0.1664 0.1640 0.1492 0.2425 0.3032 0.3330 0.3048 0.4496 0.3894 0.3167 0.1436 0.2102 0.4845 0.1581 0.2907 0.2848 0.4095 0.2721 0.2346 0.3196 0.1613 0.1933
0.3367 0.2038 0.3037 0.3165 0.3761 0.2047 0.1873 0.2264 0.2267 0.1645 0.1631 0.1739 0.3322 0.2645 0.2119 0.3294 0.1868 0.3071 0.3957 0.1670 0.2613 0.2544 0.3415 0.5676 0.2173 0.2684 0.4142 0.2078 0.5838 0.4341 0.2030 0.1936 0.5916 0.6826 0.2774 0.1407 0.2827 0.1623 0.1581 0.1499 0.2416 0.3055 0.3267 0.2949 0.4355 0.3769 0.3096 0.1418 0.2149 0.4485 0.1549 0.2835 0.2855 0.4122 0.2604 0.2270 0.3273 0.1568 0.1921
0.3343 0.2047 0.3072 0.3251 0.3526 0.2006 0.1830 0.2406 0.2281 0.1638 0.1643 0.1744 0.3312 0.2656 0.2113 0.3371 0.1879 0.3002 0.4221 0.1670 0.2623 0.2736 0.3178 0.5731 0.2116 0.2531 0.4137 0.2043 0.6151 0.4239 0.2054 0.1939 0.6191 0.7172 0.2714 0.1391 0.2744 0.1618 0.1592 0.1492 0.2417 0.2973 0.3243 0.2903 0.4480 0.3895 0.3074 0.1440 0.2274 0.4810 0.1566 0.2667 0.2813 0.4027 0.2602 0.2273 0.3342 0.1601 0.1917
0.3463 0.2026 0.3010 0.3013 0.3439 0.2013 0.1848 0.2365 0.2266 0.1607 0.1673 0.1678 0.3298 0.2524 0.2071 0.3210 0.1800 0.3042 0.4183 0.1604 0.2534 0.2479 0.3111 0.6348 0.2099 0.2537 0.4274 0.2022 0.6031 0.4205 0.1967 0.1880 0.5726 0.7218 0.2915 0.1326 0.2770 0.1576 0.1606 0.1446 0.2340 0.2895 0.3062 0.2843 0.4231 0.3766 0.3021 0.1458 0.2078 0.4842 0.1482 0.2712 0.2966 0.4276 0.2634 0.2199 0.3243 0.1557 0.1882
0.3551 0.1959 0.2888 0.2863 0.3473 0.1945 0.1732 0.2438 0.2289 0.1596 0.1612 0.1642 0.3199 0.2497 0.2068 0.3141 0.1738 0.3226 0.4451 0.1577 0.2553 0.2620 0.3156 0.6517 0.2122 0.2515 0.4405 0.1932 0.6031 0.4074 0.1902 0.1840 0.5599 0.7310 0.2595 0.1344 0.2820 0.1503 0.1589 0.1433 0.2331 0.2918 0.3130 0.2779 0.4122 0.3789 0.3110 0.1397 0.2093 0.4859 0.1499 0.2776 0.2979 0.4335 0.2519 0.2176 0.3155 0.1574 0.1849
0.3270 0.1918 0.2884 0.3037 0.3444 0.1977 0.1717 0.2300 0.2267 0.1590 0.1611 0.1699 0.3291 0.2491 0.1980 0.3065 0.1775 0.3297 0.4733 0.1553 0.2454 0.2519 0.3337 0.5735 0.2033 0.2378 0.4206 0.1912 0.5732 0.3932 0.1876 0.1842 0.5718 0.6938 0.2581 0.1266 0.2820 0.1545 0.1535 0.1435 0.2379 0.2896 0.3042 0.2698 0.4080 0.3768 0.3290 0.1396 0.2193 0.4417 0.1444 0.2636 0.2764 0.4150 0.2406 0.2137 0.3273 0.1471 0.1821
0.3312 0.1897 0.2903 0.3091 0.3617 0.1891 0.1721 0.2248 0.2347 0.1524 0.1598 0.1596 0.3347 0.2388 0.1939 0.3038 0.1794 0.2966 0.4048 0.1519 0.2358 0.2483 0.3270 0.6415 0.2017 0.2291 0.4332 0.1869 0.6182 0.3900 0.1855 0.1793 0.6039 0.7859 0.2662 0.1274 0.2901 0.1468 0.1497 0.1407 0.2336 0.2898 0.2961 0.2727 0.3985 0.3712 0.3027 0.1345 0.2105 0.4621 0.1418 0.2674 0.2858 0.4150 0.2400 0.2055 0.3252 0.1418 0.1813
0.3442 0.1950 0.2966 0.3106 0.3462 0.1897 0.1791 0.2372 0.2477 0.1497 0.1522 0.1577 0.3503 0.2391 0.1880 0.2959 0.1727 0.2963 0.4231 0.1528 0.2440 0.2492 0.3042 0.6650 0.1997 0.2369 0.4435 0.1782 0.6579 0.3863 0.1877 0.1804 0.6038 0.8989 0.2627 0.1265 0.3059 0.1453 0.1456 0.1355 0.2361 0.2932 0.2938 0.2706 0.3945 0.3649 0.3015 0.1373 0.2041 0.4795 0.1418 0.2725 0.2821 0.4292 0.2429 0.2087 0.3141 0.1429 0.1841
0.3323 0.1833 0.2822 0.2821 0.3241 0.1821 0.1637 0.2215 0.2230 0.1496 0.1533 0.1512 0.3093 0.2331 0.1877 0.3040 0.1676 0.2929 0.3905 0.1504 0.2300 0.2442 0.3216 0.6790 0.1960 0.2311 0.4752 0.1743 0.6030 0.3907 0.1921 0.1714 0.5668 0.7486 0.2431 0.1228 0.2811 0.1405 0.1475 0.1319 0.2157 0.2688 0.2885 0.2629 0.3910 0.3737 0.2938 0.1318 0.1926 0.4618 0.1428 0.2646 0.2754 0.4505 0.2381 0.1993 0.3227 0.1391 0.1764
0.3513 0.1821 0.2801 0.2821 0.3155 0.1807 0.1675 0.2126 0.2304 0.1467 0.1478 0.1523 0.3187 0.2281 0.1821 0.2965 0.1663 0.2751 0.3697 0.1488 0.2207 0.2409 0.3084 0.5889 0.1893 0.2197 0.4162 0.1706 0.6458 0.4101 0.1823 0.1737 0.5848 0.7916 0.2526 0.1212 0.2709 0.1413 0.1418 0.1316 0.2204 0.2700 0.2785 0.2535 0.3772 0.3451 0.2845 0.1299 0.1904 0.4413 0.1367 0.2542 0.2580 0.3999 0.2238 0.1974 0.3036 0.1340 0.1757
0.3378 0.1757 0.2833 0.3011 0.3269 0.1766 0.1603 0.2016 0.2241 0.1414 0.1454 0.1491 0.3127 0.2292 0.1788 0.2792 0.1596 0.2733 0.3742 0.1432 0.2193 0.2420 0.3096 0.5737 0.1895 0.2198 0.4210 0.1868 0.6614 0.3820 0.1794 0.1629 0.6038 0.7958 0.2432 0.1210 0.2657 0.1367 0.1399 0.1282 0.2086 0.2622 0.2732 0.2436 0.3630 0.3364 0.2708 0.1269 0.1947 0.4392 0.1316 0.2496 0.2601 0.4118 0.2216 0.1981 0.3234 0.1310 0.1679
0.3098 0.1733 0.2720 0.2903 0.3170 0.1707 0.1521 0.2019 0.2129 0.1366 0.1432 0.1436 0.3010 0.2130 0.1758 0.2756 0.1545 0.2725 0.3789 0.1416 0.2143 0.2242 0.2814 0.5915 0.1775 0.2214 0.4242 0.1881 0.5762 0.3600 0.1775 0.1616 0.5626 0.7216 0.2372 0.1159 0.2568 0.1341 0.1348 0.1262 0.2051 0.2512 0.2654 0.2410 0.3524 0.3310 0.2821 0.1231 0.1868 0.4244 0.1326 0.2457 0.2540 0.4097 0.2160 0.1951 0.3159 0.1304 0.1639
0.3018 0.1686 0.2688 0.2848 0.3176 0.1672 0.1566 0.1896 0.2076 0.1359 0.1395 0.1390 0.2926 0.2127 0.1740 0.2806 0.1537 0.2961 0.4183 0.1392 0.2078 0.2507 0.2938 0.6194 0.1830 0.2145 0.4293 0.1754 0.5585 0.3623 0.1746 0.1610 0.5719 0.6835 0.2384 0.1141 0.2489 0.1309 0.1360 0.1264 0.1991 0.2451 0.2598 0.2464 0.3614 0.3550 0.2920 0.1249 0.1842 0.5166 0.1305 0.2397 0.2444 0.3978 0.2200 0.1892 0.3237 0.1293 0.1647
0.3031 0.1638 0.2617 0.2827 0.3163 0.1663 0.1512 0.1937 0.2114 0.1347 0.1392 0.1361 0.3102 0.2099 0.1711 0.2893 0.1531 0.3108 0.4836 0.1487 0.2068 0.2671 0.3241 0.6548 0.1795 0.2113 0.4471 0.1725 0.6097 0.3459 0.1739 0.1554 0.5743 0.7609 0.2301 0.1115 0.2591 0.1255 0.1391 0.1225 0.1997 0.2512 0.2550 0.2456 0.3612 0.3858 0.3073 0.1297 0.1917 0.5982 0.1277 0.2469 0.2438 0.4052 0.2177 0.1924 0.3397 0.1267 0.1641
0.2929 0.1635 0.2615 0.2613 0.3133 0.1630 0.1490 0.1885 0.2041 0.1361 0.1326 0.1334 0.2794 0.2084 0.1668 0.2597 0.1527 0.2697 0.4371 0.1323 0.2017 0.2584 0.3194 0.5693 0.1659 0.1974 0.3965 0.1681 0.5612 0.3466 0.1769 0.1565 0.5261 0.6930 0.2306 0.1127 0.2623 0.1275 0.1304 0.1189 0.1919 0.2354 0.2467 0.2362 0.3370 0.3310 0.2803 0.1184 0.1921 0.5037 0.1256 0.2350 0.2454 0.3630 0.2091 0.1790 0.3093 0.1248 0.1582
0.2942 0.1626 0.2535 0.2573 0.2925 0.1611 0.1451 0.1892 0.2165 0.1298 0.1314 0.1359 0.2746 0.2063 0.1594 0.2557 0.1501 0.2614 0.3718 0.1319 0.2012 0.2267 0.2958 0.5418 0.1656 0.1980 0.3766 0.1625 0.5779 0.3357 0.1657 0.1569 0.5240 0.7675 0.2192 0.1058 0.2624 0.1237 0.1263 0.1143 0.1932 0.2307 0.2554 0.2344 0.3410 0.3220 0.2720 0.1174 0.1795 0.4308 0.1180 0.2244 0.2353 0.3541 0.2089 0.1800 0.2870 0.1193 0.1577
0.2878 0.1555 0.2468 0.2541 0.2884 0.1574 0.1368 0.1893 0.2063 0.1282 0.1295 0.1377 0.2802 0.2089 0.1598 0.2480 0.1419 0.2862 0.3946 0.1321 0.1925 0.2222 0.3008 0.5749 0.1645 0.1919 0.3760 0.1600 0.5536 0.3297 0.1620 0.1446 0.5218 0.7007 0.2083 0.1084 0.2467 0.1210 0.1252 0.1136 0.1991 0.2367 0.2531 0.2269 0.3272 0.3293 0.2754 0.1154 0.1660 0.4813 0.1181 0.2227 0.2266 0.3634 0.2007 0.1810 0.2911 0.1190 0.1537
0.2592 0.1463 0.2333 0.2537 0.2812 0.1523 0.1425 0.1761 0.1813 0.1235 0.1244 0.1307 0.2586 0.1948 0.1529 0.2517 0.1423 0.2555 0.3768 0.1317 0.1848 0.2210 0.2703 0.5565 0.1558 0.1899 0.3543 0.1541 0.4829 0.3166 0.1559 0.1443 0.4825 0.5966 0.2042 0.1075 0.2359 0.1225 0.1200 0.1092 0.1840 0.2297 0.2443 0.2178 0.3230 0.3212 0.2569 0.1122 0.1756 0.4721 0.1201 0.2129 0.2293 0.3323 0.1941 0.1741 0.2717 0.1177 0.1495
0.2617 0.1469 0.2356 0.2516 0.2869 0.1541 0.1336 0.1796 0.1855 0.1197 0.1249 0.1269 0.2618 0.2005 0.1554 0.2524 0.1395 0.2574 0.4009 0.1287 0.1838 0.2286 0.2760 0.6200 0.1636 0.1818 0.3757 0.1584 0.5005 0.3162 0.1535 0.1435 0.4973 0.5973 0.1967 0.1010 0.2401 0.1158 0.1234 0.1114 0.1817 0.2266 0.2341 0.2108 0.3213 0.3275 0.2615 0.1124 0.1714 0.5032 0.1166 0.2198 0.2469 0.3444 0.1973 0.1700 0.2815 0.1116 0.1450
0.2649 0.1490 0.2295 0.2649 0.2725 0.1462 0.1359 0.1775 0.1904 0.1168 0.1227 0.1258 0.2643 0.1912 0.1524 0.2421 0.1367 0.2432 0.3655 0.1208 0.1775 0.2111 0.2705 0.5470 0.1544 0.1833 0.3509 0.1539 0.4948 0.3089 0.1513 0.1388 0.4826 0.6225 0.1990 0.1009 0.2334 0.1152 0.1172 0.1100 0.1811 0.2145 0.2353 0.2132 0.3076 0.3027 0.2474 0.1093 0.1716 0.4236 0.1107 0.2225 0.2258 0.3228 0.1967 0.1684 0.2706 0.1097 0.1456
0.2460 0.1399 0.2201 0.2407 0.2783 0.1409 0.1325 0.1833 0.1758 0.1195 0.1175 0.1219 0.2519 0.1920 0.1477 0.2325 0.1350 0.2370 0.3155 0.1203 0.1719 0.2091 0.2691 0.4904 0.1468 0.1790 0.3215 0.1487 0.4516 0.2920 0.1496 0.1336 0.4546 0.5743 0.2055 0.1007 0.2321 0.1099 0.1137 0.1042 0.1747 0.2190 0.2289 0.2036 0.3096 0.2934 0.2346 0.1069 0.1620 0.3826 0.1101 0.2095 0.2186 0.3137 0.1835 0.1662 0.2541 0.1104 0.1457
0.2392 0.1355 0.2188 0.2254 0.2537 0.1389 0.1333 0.1776 0.1700 0.1155 0.1118 0.1200 0.2422 0.1892 0.1497 0.2222 0.1304 0.2386 0.3463 0.1175 0.1666 0.2000 0.2428 0.4939 0.1440 0.1765 0.3222 0.1422 0.4301 0.2975 0.1458 0.1367 0.4302 0.5345 0.1936 0.0974 0.2113 0.1108 0.1143 0.1036 0.1680 0.2129 0.2319 0.2051 0.2908 0.2715 0.2363 0.1013 0.1579 0.4004 0.1083 0.2023 0.2241 0.3104 0.1800 0.1661 0.2480 0.1085 0.1385
0.2434 0.1404 0.2202 0.2321 0.2670 0.1404 0.1353 0.1644 0.1687 0.1148 0.1159 0.1161 0.2389 0.1793 0.1402 0.2233 0.1276 0.2326 0.3389 0.1172 0.1728 0.1949 0.2511 0.5439 0.1413 0.1731 0.3636 0.1380 0.4623 0.2884 0.1389 0.1327 0.4568 0.5415 0.1985 0.0982 0.2113 0.1091 0.1086 0.1021 0.1671 0.2156 0.2197 0.1975 0.2884 0.2853 0.2331 0.1036 0.1602 0.4156 0.1064 0.1929 0.2223 0.3413 0.1831 0.1604 0.2545 0.1060 0.1341
0.2549 0.1399 0.2153 0.2191 0.2493 0.1355 0.1284 0.1587 0.1697 0.1147 0.1124 0.1181 0.2440 0.1801 0.1417 0.2254 0.1261 0.2352 0.3521 0.1113 0.1672 0.1938 0.2535 0.5335 0.1394 0.1682 0.3538 0.1331 0.4503 0.2928 0.1347 0.1319 0.4303 0.5290 0.1829 0.0945 0.2109 0.1066 0.1060 0.1013 0.1746 0.2127 0.2157 0.1867 0.2820 0.2849 0.2447 0.1010 0.1564 0.3968 0.1053 0.1949 0.2189 0.3275 0.1794 0.1609 0.2535 0.1015 0.1299
0.2335 0.1303 0.2037 0.2164 0.2648 0.1294 0.1281 0.1673 0.1591 0.1079 0.1112 0.1118 0.2208 0.1715 0.1366 0.2155 0.1171 0.2167 0.3383 0.1092 0.1551 0.2065 0.2433 0.4890 0.1361 0.1614 0.3128 0.1426 0.3956 0.2641 0.1421 0.1236 0.4046 0.4864 0.1840 0.0909 0.2099 0.1041 0.1048 0.0971 0.1664 0.1986 0.2102 0.1875 0.2688 0.2640 0.2192 0.1013 0.1527 0.4112 0.1011 0.1923 0.2173 0.2985 0.1733 0.1566 0.2414 0.0973 0.1352
0.2301 0.1300 0.1995 0.2071 0.2386 0.1268 0.1205 0.1557 0.1545 0.1070 0.1097 0.1120 0.2116 0.1736 0.1349 0.2054 0.1193 0.2204 0.3405 0.1098 0.1595 0.1920 0.2373 0.4531 0.1370 0.1536 0.3238 0.1373 0.3963 0.2679 0.1313 0.1227 0.3905 0.4356 0.1734 0.0905 0.1874 0.1055 0.1021 0.0995 0.1667 0.2031 0.2086 0.1838 0.2616 0.2589 0.2237 0.0985 0.1518 0.4063 0.0992 0.1732 0.2067 0.2953 0.1671 0.1516 0.2523 0.0969 0.1299
0.2237 0.1322 0.1940 0.2098 0.2403 0.1258 0.1184 0.1547 0.1566 0.1021 0.1086 0.1079 0.2149 0.1659 0.1323 0.2076 0.1165 0.2115 0.3184 0.1052 0.1547 0.1919 0.2402 0.4795 0.1310 0.1495 0.3084 0.1292 0.3976 0.2581 0.1323 0.1266 0.3953 0.4589 0.1677 0.0873 0.2013 0.1002 0.1006 0.0904 0.1642 0.1966 0.2013 0.1832 0.2645 0.2641 0.2179 0.0951 0.1502 0.3766 0.0958 0.1844 0.2128 0.2857 0.1623 0.1506 0.2378 0.0953 0.1295
0.2101 0.1251 0.1905 0.2028 0.2368 0.1200 0.1187 0.1531 0.1525 0.1022 0.1059 0.1043 0.2131 0.1647 0.1297 0.2064 0.1179 0.2106 0.3174 0.1043 0.1493 0.1854 0.2290 0.5657 0.1288 0.1459 0.3193 0.1402 0.3732 0.2588 0.1319 0.1190 0.3799 0.4379 0.1705 0.0846 0.1909 0.1019 0.0972 0.0946 0.1541 0.1974 0.1933 0.1705 0.2551 0.2660 0.2158 0.0940 0.1483 0.4169 0.0994 0.1842 0.2182 0.2928 0.1628 0.1458 0.2267 0.0937 0.1215
0.1968 0.1174 0.1834 0.2009 0.2562 0.1153 0.1148 0.1489 0.1451 0.0983 0.1053 0.1044 0.2026 0.1539 0.1285 0.2100 0.1134 0.2253 0.3678 0.1022 0.1457 0.2040 0.2591 0.5319 0.1289 0.1476 0.3192 0.1399 0.3446 0.2396 0.1242 0.1124 0.3757 0.3949 0.1650 0.0826 0.1903 0.0977 0.0955 0.0896 0.1512 0.1814 0.1904 0.1773 0.2498 0.2815 0.2360 0.0945 0.1518 0.4486 0.0966 0.1824 0.1992 0.2912 0.1610 0.1434 0.2458 0.0900 0.1168
0.1968 0.1137 0.1770 0.1990 0.2327 0.1159 0.1105 0.1420 0.1311 0.0964 0.0972 0.1005 0.1893 0.1540 0.1236 0.1952 0.1086 0.2186 0.3062 0.0996 0.1416 0.1727 0.2193 0.4586 0.1193 0.1373 0.2918 0.1185 0.3294 0.2348 0.1224 0.1081 0.3642 0.3741 0.1550 0.0798 0.1778 0.0950 0.0934 0.0876 0.1487 0.1806 0.1840 0.1683 0.2482 0.2565 0.2117 0.0877 0.1365 0.3618 0.0925 0.1727 0.1794 0.2808 0.1476 0.1378 0.2156 0.0891 0.1181
0.1970 0.1126 0.1765 0.1930 0.2312 0.1154 0.1055 0.1358 0.1315 0.0967 0.0961 0.0964 0.1921 0.1525 0.1232 0.1948 0.1066 0.2115 0.3087 0.0979 0.1395 0.1764 0.2305 0.4405 0.1188 0.1372 0.3036 0.1214 0.3252 0.2383 0.1307 0.1103 0.3554 0.3611 0.1530 0.0786 0.1821 0.0939 0.0942 0.0850 0.1449 0.1749 0.1821 0.1653 0.2433 0.2569 0.2083 0.0850 0.1409 0.3615 0.0914 0.1645 0.1892 0.2830 0.1435 0.1374 0.2325 0.0869 0.1156
0.1919 0.1122 0.1622 0.1909 0.2284 0.1128 0.1070 0.1381 0.1322 0.0965 0.0930 0.0930 0.1899 0.1474 0.1182 0.1929 0.1034 0.1892 0.2728 0.0931 0.1354 0.1651 0.2046 0.4352 0.1148 0.1311 0.2724 0.1228 0.3174 0.2277 0.1278 0.1087 0.3371 0.3538 0.1546 0.0800 0.1815 0.0861 0.0903 0.0842 0.1439 0.1750 0.1807 0.1577 0.2372 0.2353 0.1922 0.0809 0.1312 0.3406 0.0848 0.1587 0.1929 0.2498 0.1460 0.1352 0.2002 0.0843 0.1156
0.2037 0.1066 0.1604 0.1904 0.2306 0.1066 0.1012 0.1389 0.1268 0.0907 0.0926 0.0902 0.1825 0.1459 0.1188 0.1955 0.1022 0.1850 0.2556 0.0938 0.1272 0.1640 0.2042 0.4779 0.1113 0.1305 0.2840 0.1149 0.3024 0.2337 0.1226 0.1012 0.3319 0.3228 0.1478 0.0772 0.1751 0.0856 0.0883 0.0804 0.1397 0.1702 0.1694 0.1551 0.2383 0.2416 0.1845 0.0813 0.1279 0.3630 0.0882 0.1603 0.1950 0.2597 0.1433 0.1320 0.2018 0.0811 0.1122
0.2072 0.1060 0.1623 0.1813 0.2262 0.1066 0.1059 0.1357 0.1216 0.0913 0.0884 0.0899 0.1761 0.1352 0.1088 0.1796 0.0981 0.1904 0.2631 0.0916 0.1253 0.1591 0.2087 0.4561 0.1062 0.1277 0.2790 0.1077 0.2986 0.2233 0.1212 0.1046 0.3327 0.3050 0.1431 0.0763 0.1626 0.0858 0.0866 0.0770 0.1395 0.1648 0.1651 0.1528 0.2268 0.2346 0.1849 0.0787 0.1240 0.3530 0.0841 0.1534 0.1904 0.2540 0.1398 0.1263 0.2067 0.0809 0.1093
0.1885 0.1020 0.1530 0.1747 0.2132 0.1027 0.1010 0.1380 0.1188 0.0847 0.0900 0.0879 0.1654 0.1373 0.1069 0.1785 0.1008 0.1711 0.2496 0.0908 0.1244 0.1563 0.1873 0.4149 0.1065 0.1238 0.2571 0.1021 0.2923 0.2092 0.1167 0.1019 0.3080 0.2785 0.1448 0.0726 0.1632 0.0839 0.0833 0.0778 0.1344 0.1620 0.1655 0.1468 0.2267 0.2181 0.1749 0.0766 0.1225 0.3283 0.0823 0.1456 0.1824 0.2408 0.1312 0.1249 0.1862 0.0769 0.1084
0.1788 0.0998 0.1489 0.1777 0.2113 0.0987 0.0967 0.1271 0.1097 0.0851 0.0846 0.0835 0.1629 0.1303 0.1033 0.1674 0.0954 0.1850 0.2483 0.0832 0.1208 0.1467 0.1946 0.3623 0.1039 0.1253 0.2551 0.1051 0.2967 0.2098 0.1133 0.0997 0.3036 0.2830 0.1343 0.0710 0.1632 0.0784 0.0796 0.0737 0.1264 0.1542 0.1586 0.1454 0.2126 0.2148 0.1829 0.0738 0.1191 0.2908 0.0778 0.1427 0.1643 0.2361 0.1314 0.1203 0.1927 0.0762 0.1037
0.1718 0.0967 0.1396 0.1664 0.1952 0.0968 0.0915 0.1233 0.1082 0.0815 0.0841 0.0817 0.1583 0.1297 0.1054 0.1666 0.0955 0.1801 0.2410 0.0808 0.1186 0.1441 0.1908 0.3910 0.1008 0.1213 0.2570 0.1129 0.2803 0.2026 0.1143 0.0946 0.2809 0.2625 0.1317 0.0691 0.1510 0.0783 0.0794 0.0725 0.1206 0.1482 0.1538 0.1374 0.2119 0.2144 0.1816 0.0727 0.1158 0.2933 0.0766 0.1437 0.1606 0.2446 0.1256 0.1225 0.1948 0.0714 0.1034
0.1623 0.0918 0.1412 0.1706 0.1894 0.0939 0.0954 0.1324 0.1104 0.0811 0.0802 0.0799 0.1477 0.1228 0.0974 0.1628 0.0896 0.1762 0.2685 0.0798 0.1154 0.1445 0.1879 0.3890 0.0982 0.1147 0.2335 0.1124 0.2681 0.2007 0.1124 0.0890 0.2932 0.2596 0.1302 0.0654 0.1534 0.0788 0.0787 0.0708 0.1183 0.1428 0.1458 0.1353 0.2064 0.2116 0.1823 0.0710 0.1125 0.3023 0.0731 0.1433 0.1622 0.2218 0.1199 0.1150 0.1739 0.0704 0.0998
0.1429 0.0894 0.1321 0.1540 0.1816 0.0880 0.0916 0.1229 0.1042 0.0772 0.0764 0.0780 0.1458 0.1202 0.0986 0.1600 0.0874 0.1818 0.2521 0.0800 0.1086 0.1413 0.1917 0.4533 0.0965 0.1100 0.2604 0.1005 0.2283 0.1778 0.1043 0.0854 0.2576 0.2329 0.1221 0.0668 0.1462 0.0726 0.0746 0.0686 0.1166 0.1425 0.1489 0.1332 0.1942 0.2173 0.1756 0.0721 0.1097 0.3155 0.0738 0.1398 0.1719 0.2410 0.1199 0.1109 0.1787 0.0684 0.0944
0.1489 0.0887 0.1263 0.1504 0.1701 0.0850 0.0875 0.1119 0.0951 0.0734 0.0772 0.0744 0.1450 0.1200 0.0944 0.1553 0.0855 0.1837 0.2636 0.0800 0.1060 0.1454 0.1875 0.4054 0.0982 0.1084 0.2718 0.0978 0.2327 0.1815 0.1038 0.0834 0.2491 0.2222 0.1182 0.0624 0.1349 0.0714 0.0729 0.0662 0.1106 0.1420 0.1459 0.1321 0.1876 0.2208 0.1745 0.0710 0.1080 0.3442 0.0731 0.1263 0.1510 0.2438 0.1212 0.1064 0.1929 0.0663 0.0926
0.1490 0.0869 0.1281 0.1515 0.1765 0.0851 0.0830 0.1147 0.1009 0.0742 0.0755 0.0736 0.1394 0.1171 0.0922 0.1555 0.0814 0.1697 0.2385 0.0769 0.1046 0.1358 0.1862 0.4294 0.0941 0.1049 0.2748 0.0912 0.2331 0.1787 0.1037 0.0835 0.2583 0.2164 0.1205 0.0603 0.1348 0.0729 0.0715 0.0684 0.1108 0.1373 0.1388 0.1256 0.1892 0.2146 0.1661 0.0674 0.1052 0.3233 0.0682 0.1291 0.1585 0.2470 0.1187 0.1055 0.1898 0.0645 0.0926
0.1436 0.0838 0.1202 0.1509 0.1647 0.0835 0.0819 0.1043 0.0979 0.0709 0.0729 0.0711 0.1364 0.1102 0.0871 0.1478 0.0827 0.1611 0.2408 0.0740 0.1011 0.1354 0.1755 0.3696 0.0891 0.0990 0.2377 0.0887 0.2250 0.1672 0.0934 0.0824 0.2509 0.2063 0.1085 0.0611 0.1280 0.0663 0.0695 0.0639 0.1091 0.1294 0.1314 0.1240 0.1850 0.1957 0.1643 0.0663 0.1027 0.2819 0.0660 0.1301 0.1489 0.2208 0.1081 0.1030 0.1726 0.0642 0.0842
0.1408 0.0816 0.1227 0.1427 0.1672 0.0800 0.0808 0.1060 0.0881 0.0686 0.0689 0.0724 0.1315 0.1057 0.0834 0.1381 0.0769 0.1502 0.2258 0.0723 0.0991 0.1277 0.1632 0.3664 0.0868 0.0970 0.2242 0.0876 0.2133 0.1722 0.0892 0.0767 0.2397 0.2029 0.1117 0.0570 0.1259 0.0671 0.0669 0.0627 0.1061 0.1259 0.1301 0.1180 0.1733 0.1843 0.1551 0.0626 0.1035 0.2705 0.0650 0.1256 0.1425 0.2038 0.1076 0.1021 0.1603 0.0607 0.0866
0.1277 0.0782 0.1193 0.1368 0.1583 0.0783 0.0747 0.1013 0.0867 0.0658 0.0665 0.0696 0.1222 0.1060 0.0844 0.1367 0.0767 0.1458 0.2192 0.0671 0.0975 0.1228 0.1620 0.3260 0.0812 0.0925 0.2134 0.0820 0.2019 0.1621 0.0880 0.0729 0.2350 0.1831 0.1058 0.0535 0.1181 0.0639 0.0650 0.0585 0.1025 0.1234 0.1268 0.1156 0.1733 0.1794 0.1506 0.0602 0.0975 0.2627 0.0616 0.1132 0.1363 0.1967 0.1021 0.0968 0.1562 0.0584 0.0817
0.1297 0.0761 0.1117 0.1398 0.1575 0.0775 0.0741 0.0999 0.0887 0.0653 0.0677 0.0649 0.1247 0.1030 0.0824 0.1347 0.0707 0.1492 0.2193 0.0659 0.0926 0.1184 0.1567 0.3963 0.0823 0.0915 0.2306 0.0782 0.2072 0.1608 0.0830 0.0726 0.2375 0.1803 0.1006 0.0540 0.1196 0.0640 0.0614 0.0591 0.1002 0.1210 0.1209 0.1139 0.1608 0.1818 0.1479 0.0584 0.0920 0.2928 0.0615 0.1161 0.1558 0.2114 0.1024 0.0942 0.1567 0.0572 0.0806
0.1231 0.0759 0.1080 0.1335 0.1520 0.0742 0.0713 0.0980 0.0866 0.0636 0.0640 0.0639 0.1194 0.0997 0.0835 0.1291 0.0689 0.1460 0.2394 0.0639 0.0913 0.1130 0.1558 0.3521 0.0801 0.0903 0.2362 0.0787 0.1963 0.1520 0.0829 0.0699 0.2196 0.1784 0.0963 0.0535 0.1185 0.0590 0.0602 0.0570 0.0993 0.1143 0.1148 0.1099 0.1543 0.1734 0.1496 0.0582 0.0954 0.2678 0.0601 0.1067 0.1487 0.2174 0.1010 0.0913 0.1667 0.0574 0.0745
0.1202 0.0714 0.1056 0.1312 0.1466 0.0714 0.0718 0.0963 0.0787 0.0596 0.0605 0.0620 0.1112 0.1015 0.0787 0.1217 0.0686 0.1316 0.2064 0.0623 0.0869 0.1084 0.1483 0.3108 0.0761 0.0877 0.2085 0.0782 0.1870 0.1520 0.0818 0.0689 0.2113 0.1725 0.0982 0.0511 0.1118 0.0582 0.0594 0.0540 0.0927 0.1132 0.1171 0.1056 0.1553 0.1573 0.1302 0.0548 0.0891 0.2422 0.0556 0.1041 0.1345 0.1925 0.0957 0.0896 0.1545 0.0526 0.0728
0.1227 0.0697 0.1020 0.1320 0.1401 0.0674 0.0694 0.0908 0.0791 0.0598 0.0610 0.0586 0.1138 0.0930 0.0748 0.1208 0.0652 0.1344 0.1839 0.0596 0.0841 0.1187 0.1561 0.3443 0.0711 0.0834 0.2066 0.0779 0.1874 0.1463 0.0898 0.0655 0.2066 0.1671 0.0922 0.0491 0.1093 0.0566 0.0575 0.0520 0.0932 0.1144 0.1096 0.1013 0.1491 0.1607 0.1295 0.0538 0.0875 0.2344 0.0550 0.1107 0.1391 0.1934 0.0924 0.0854 0.1462 0.0525 0.0721
0.1104 0.0666 0.0987 0.1244 0.1298 0.0653 0.0662 0.0909 0.0746 0.0587 0.0596 0.0576 0.1077 0.0908 0.0712 0.1130 0.0623 0.1264 0.1765 0.0576 0.0819 0.1151 0.1434 0.3120 0.0716 0.0836 0.1978 0.0813 0.1920 0.1420 0.0874 0.0629 0.2001 0.1556 0.0897 0.0470 0.1031 0.0564 0.0564 0.0504 0.0851 0.1099 0.1082 0.0988 0.1397 0.1499 0.1217 0.0520 0.0803 0.2305 0.0531 0.1043 0.1335 0.1848 0.0910 0.0842 0.1389 0.0507 0.0739
0.1128 0.0646 0.0960 0.1142 0.1326 0.0648 0.0643 0.0921 0.0756 0.0540 0.0575 0.0565 0.1059 0.0867 0.0711 0.1091 0.0605 0.1271 0.1861 0.0565 0.0790 0.1070 0.1255 0.3035 0.0670 0.0802 0.1855 0.0769 0.1812 0.1461 0.0799 0.0614 0.1911 0.1598 0.0911 0.0463 0.1003 0.0541 0.0521 0.0502 0.0895 0.1071 0.1048 0.0941 0.1332 0.1429 0.1171 0.0509 0.0823 0.2386 0.0511 0.0980 0.1243 0.1737 0.0894 0.0828 0.1334 0.0498 0.0735
0.1105 0.0617 0.0911 0.1136 0.1284 0.0609 0.0637 0.0864 0.0733 0.0540 0.0556 0.0537 0.1018 0.0848 0.0687 0.1115 0.0603 0.1219 0.1689 0.0536 0.0762 0.1061 0.1341 0.2914 0.0658 0.0766 0.1960 0.0698 0.1699 0.1356 0.0760 0.0574 0.1857 0.1441 0.0839 0.0452 0.0981 0.0523 0.0512 0.0487 0.0838 0.1024 0.1018 0.0899 0.1345 0.1461 0.1185 0.0491 0.0791 0.2241 0.0510 0.0940 0.1170 0.1809 0.0832 0.0798 0.1387 0.0462 0.0680
0.1002 0.0621 0.0895 0.1078 0.1192 0.0592 0.0591 0.0834 0.0703 0.0531 0.0542 0.0530 0.0964 0.0791 0.0628 0.1025 0.0599 0.1126 0.1702 0.0514 0.0735 0.0966 0.1241 0.2791 0.0628 0.0737 0.1760 0.0658 0.1531 0.1236 0.0737 0.0583 0.1718 0.1400 0.0791 0.0442 0.0941 0.0517 0.0505 0.0482 0.0810 0.0944 0.0992 0.0863 0.1291 0.1363 0.1125 0.0469 0.0762 0.2103 0.0476 0.0918 0.1159 0.1592 0.0825 0.0765 0.1261 0.0474 0.0638
0.0988 0.0588 0.0884 0.1033 0.1145 0.0584 0.0569 0.0775 0.0694 0.0502 0.0493 0.0489 0.0960 0.0770 0.0637 0.1028 0.0561 0.1239 0.1871 0.0511 0.0711 0.0989 0.1264 0.2777 0.0639 0.0697 0.1813 0.0642 0.1527 0.1323 0.0687 0.0547 0.1706 0.1336 0.0784 0.0419 0.0902 0.0491 0.0480 0.0444 0.0780 0.0936 0.0912 0.0824 0.1230 0.1398 0.1211 0.0455 0.0747 0.2229 0.0459 0.0877 0.1138 0.1640 0.0785 0.0739 0.1285 0.0445 0.0631
0.0948 0.0572 0.0820 0.0978 0.1136 0.0555 0.0562 0.0790 0.0675 0.0471 0.0491 0.0491 0.0914 0.0751 0.0610 0.0988 0.0542 0.1312 0.2222 0.0487 0.0691 0.1082 0.1399 0.2830 0.0615 0.0673 0.1850 0.0629 0.1428 0.1204 0.0683 0.0529 0.1607 0.1245 0.0728 0.0399 0.0876 0.0488 0.0467 0.0419 0.0783 0.0910 0.0899 0.0815 0.1193 0.1499 0.1329 0.0454 0.0836 0.2425 0.0458 0.0851 0.1116 0.1620 0.0777 0.0691 0.1327 0.0422 0.0609
0.0885 0.0557 0.0782 0.0978 0.1117 0.0546 0.0534 0.0733 0.0657 0.0482 0.0480 0.0473 0.0872 0.0752 0.0595 0.0964 0.0529 0.1230 0.1923 0.0494 0.0640 0.1019 0.1306 0.2650 0.0574 0.0656 0.1653 0.0589 0.1368 0.1124 0.0646 0.0514 0.1510 0.1133 0.0718 0.0391 0.0860 0.0454 0.0451 0.0428 0.0747 0.0891 0.0885 0.0779 0.1165 0.1427 0.1211 0.0428 0.0776 0.2200 0.0427 0.0838 0.1072 0.1499 0.0753 0.0661 0.1205 0.0404 0.0561
0.0951 0.0538 0.0778 0.0970 0.1144 0.0520 0.0510 0.0774 0.0668 0.0459 0.0458 0.0447 0.0881 0.0715 0.0581 0.0922 0.0494 0.1050 0.1637 0.0449 0.0625 0.0859 0.1136 0.2475 0.0545 0.0646 0.1553 0.0572 0.1470 0.1153 0.0628 0.0493 0.1587 0.1211 0.0702 0.0371 0.0858 0.0438 0.0437 0.0388 0.0762 0.0894 0.0828 0.0751 0.1104 0.1222 0.1060 0.0414 0.0725 0.1895 0.0399 0.0779 0.1060 0.1422 0.0696 0.0656 0.1064 0.0387 0.0543
0.0810 0.0511 0.0733 0.0925 0.1048 0.0502 0.0492 0.0736 0.0595 0.0435 0.0438 0.0427 0.0832 0.0665 0.0542 0.0881 0.0500 0.0967 0.1555 0.0437 0.0599 0.0884 0.1065 0.2564 0.0526 0.0607 0.1448 0.0551 0.1319 0.1038 0.0586 0.0484 0.1492 0.1128 0.0660 0.0370 0.0754 0.0415 0.0409 0.0386 0.0702 0.0823 0.0788 0.0740 0.1092 0.1185 0.0992 0.0389 0.0707 0.2003 0.0407 0.0771 0.0970 0.1349 0.0683 0.0624 0.1013 0.0385 0.0531
0.0831 0.0464 0.0683 0.0893 0.1032 0.0466 0.0466 0.0653 0.0611 0.0411 0.0423 0.0419 0.0780 0.0667 0.0527 0.0831 0.0468 0.1016 0.1516 0.0423 0.0566 0.0790 0.1060 0.2215 0.0496 0.0599 0.1419 0.0527 0.1276 0.1036 0.0609 0.0448 0.1430 0.1122 0.0652 0.0346 0.0797 0.0395 0.0400 0.0367 0.0664 0.0794 0.0782 0.0709 0.1016 0.1163 0.1020 0.0380 0.0617 0.1667 0.0393 0.0712 0.0926 0.1348 0.0624 0.0605 0.0987 0.0356 0.0531
0.0888 0.0468 0.0688 0.0883 0.1006 0.0459 0.0464 0.0626 0.0567 0.0400 0.0410 0.0398 0.0788 0.0642 0.0500 0.0829 0.0453 0.0905 0.1577 0.0412 0.0558 0.0778 0.1035 0.2229 0.0476 0.0566 0.1416 0.0510 0.1266 0.1079 0.0576 0.0441 0.1419 0.1058 0.0632 0.0327 0.0748 0.0393 0.0378 0.0361 0.0677 0.0783 0.0751 0.0669 0.0982 0.1076 0.0943 0.0366 0.0656 0.1736 0.0373 0.0686 0.0995 0.1299 0.0618 0.0563 0.1003 0.0355 0.0488
0.0780 0.0452 0.0651 0.0842 0.0914 0.0434 0.0437 0.0625 0.0519 0.0381 0.0393 0.0376 0.0738 0.0593 0.0483 0.0778 0.0436 0.0898 0.1571 0.0395 0.0535 0.0820 0.0990 0.2249 0.0465 0.0542 0.1371 0.0486 0.1207 0.0991 0.0541 0.0442 0.1335 0.1018 0.0564 0.0320 0.0689 0.0370 0.0366 0.0342 0.0616 0.0732 0.0703 0.0642 0.0948 0.1045 0.0941 0.0362 0.0651 0.1719 0.0359 0.0706 0.0915 0.1261 0.0593 0.0565 0.0943 0.0333 0.0482
0.0703 0.0441 0.0651 0.0792 0.0878 0.0422 0.0427 0.0604 0.0518 0.0370 0.0380 0.0370 0.0721 0.0568 0.0468 0.0770 0.0403 0.0944 0.1610 0.0385 0.0517 0.0911 0.1037 0.2358 0.0458 0.0520 0.1366 0.0482 0.1172 0.0975 0.0530 0.0406 0.1284 0.0977 0.0564 0.0319 0.0658 0.0358 0.0349 0.0331 0.0601 0.0709 0.0673 0.0635 0.0908 0.1124 0.0926 0.0347 0.0633 0.2031 0.0349 0.0712 0.0872 0.1224 0.0608 0.0547 0.0940 0.0322 0.0485
0.0732 0.0423 0.0605 0.0777 0.0809 0.0399 0.0401 0.0573 0.0490 0.0356 0.0364 0.0360 0.0667 0.0574 0.0461 0.0741 0.0404 0.0919 0.1397 0.0357 0.0518 0.0736 0.1000 0.2225 0.0450 0.0517 0.1437 0.0470 0.1116 0.0937 0.0499 0.0384 0.1190 0.0931 0.0552 0.0296 0.0627 0.0347 0.0327 0.0328 0.0574 0.0703 0.0671 0.0597 0.0877 0.1088 0.0940 0.0332 0.0571 0.1623 0.0341 0.0634 0.0869 0.1313 0.0574 0.0547 0.0929 0.0317 0.0483
0.0782 0.0402 0.0592 0.0749 0.0797 0.0386 0.0392 0.0565 0.0462 0.0343 0.0350 0.0335 0.0639 0.0547 0.0425 0.0692 0.0377 0.0845 0.1301 0.0345 0.0479 0.0683 0.0892 0.2043 0.0429 0.0479 0.1292 0.0455 0.1167 0.0943 0.0499 0.0381 0.1179 0.0934 0.0520 0.0288 0.0602 0.0333 0.0325 0.0296 0.0558 0.0657 0.0631 0.0561 0.0846 0.0982 0.0841 0.0321 0.0549 0.1519 0.0328 0.0604 0.0849 0.1183 0.0542 0.0514 0.0868 0.0303 0.0461
0.0712 0.0391 0.0578 0.0730 0.0812 0.0375 0.0391 0.0541 0.0472 0.0317 0.0335 0.0326 0.0625 0.0513 0.0406 0.0660 0.0369 0.0843 0.1385 0.0322 0.0455 0.0652 0.0876 0.1822 0.0400 0.0457 0.1120 0.0433 0.1143 0.0901 0.0469 0.0362 0.1174 0.0896 0.0532 0.0275 0.0593 0.0325 0.0308 0.0286 0.0532 0.0632 0.0599 0.0569 0.0798 0.0904 0.0879 0.0305 0.0549 0.1318 0.0308 0.0607 0.0742 0.1034 0.0518 0.0498 0.0796 0.0284 0.0425
0.0625 0.0358 0.0550 0.0677 0.0751 0.0356 0.0358 0.0495 0.0443 0.0303 0.0325 0.0315 0.0627 0.0487 0.0415 0.0666 0.0359 0.0672 0.1023 0.0309 0.0442 0.0675 0.0751 0.2000 0.0384 0.0448 0.1053 0.0402 0.1007 0.0837 0.0439 0.0337 0.1122 0.0841 0.0479 0.0262 0.0554 0.0307 0.0294 0.0275 0.0506 0.0585 0.0581 0.0532 0.0768 0.0846 0.0695 0.0281 0.0473 0.1460 0.0290 0.0607 0.0805 0.0966 0.0496 0.0464 0.0718 0.0272 0.0395
0.0639 0.0348 0.0496 0.0639 0.0713 0.0336 0.0346 0.0467 0.0416 0.0299 0.0304 0.0297 0.0567 0.0454 0.0387 0.0619 0.0335 0.0648 0.1054 0.0300 0.0414 0.0634 0.0790 0.1756 0.0367 0.0428 0.1082 0.0375 0.0883 0.0810 0.0430 0.0328 0.0970 0.0801 0.0469 0.0256 0.0557 0.0292 0.0281 0.0271 0.0474 0.0540 0.0538 0.0488 0.0747 0.0814 0.0666 0.0280 0.0472 0.1336 0.0283 0.0524 0.0742 0.0994 0.0474 0.0445 0.0737 0.0258 0.0380
0.0664 0.0339 0.0489 0.0603 0.0685 0.0320 0.0339 0.0474 0.0384 0.0288 0.0285 0.0295 0.0537 0.0453 0.0358 0.0565 0.0327 0.0738 0.1199 0.0304 0.0398 0.0596 0.0759 0.1621 0.0351 0.0402 0.1008 0.0362 0.0901 0.0775 0.0421 0.0324 0.0924 0.0771 0.0460 0.0237 0.0549 0.0279 0.0279 0.0257 0.0462 0.0538 0.0545 0.0483 0.0695 0.0807 0.0749 0.0264 0.0469 0.1307 0.0265 0.0504 0.0668 0.0926 0.0444 0.0428 0.0725 0.0250 0.0355
0.0630 0.0331 0.0484 0.0579 0.0679 0.0311 0.0312 0.0451 0.0389 0.0264 0.0274 0.0277 0.0536 0.0436 0.0362 0.0579 0.0311 0.0652 0.1045 0.0287 0.0377 0.0626 0.0779 0.1572 0.0322 0.0394 0.0946 0.0356 0.0940 0.0784 0.0396 0.0299 0.0982 0.0754 0.0439 0.0227 0.0510 0.0261 0.0255 0.0242 0.0452 0.0530 0.0516 0.0467 0.0665 0.0791 0.0648 0.0254 0.0454 0.1269 0.0251 0.0495 0.0634 0.0886 0.0444 0.0405 0.0671 0.0239 0.0358
0.0547 0.0302 0.0444 0.0546 0.0653 0.0299 0.0300 0.0444 0.0352 0.0263 0.0267 0.0268 0.0481 0.0404 0.0342 0.0548 0.0294 0.0654 0.0980 0.0279 0.0367 0.0567 0.0747 0.1772 0.0327 0.0373 0.0988 0.0363 0.0799 0.0716 0.0394 0.0287 0.0902 0.0659 0.0403 0.0215 0.0482 0.0256 0.0251 0.0238 0.0408 0.0494 0.0481 0.0442 0.0645 0.0776 0.0636 0.0240 0.0432 0.1259 0.0243 0.0503 0.0651 0.0918 0.0425 0.0395 0.0675 0.0225 0.0338
0.0557 0.0308 0.0448 0.0546 0.0621 0.0300 0.0297 0.0431 0.0358 0.0256 0.0251 0.0239 0.0478 0.0404 0.0316 0.0497 0.0287 0.0643 0.0950 0.0254 0.0348 0.0534 0.0700 0.1557 0.0306 0.0352 0.0905 0.0341 0.0848 0.0681 0.0357 0.0291 0.0905 0.0708 0.0398 0.0216 0.0468 0.0240 0.0237 0.0219 0.0405 0.0476 0.0461 0.0434 0.0605 0.0721 0.0628 0.0225 0.0395 0.1148 0.0229 0.0480 0.0587 0.0829 0.0413 0.0385 0.0632 0.0215 0.0326
0.0597 0.0281 0.0422 0.0478 0.0595 0.0277 0.0278 0.0403 0.0333 0.0240 0.0250 0.0238 0.0456 0.0376 0.0299 0.0509 0.0262 0.0571 0.0950 0.0248 0.0331 0.0512 0.0651 0.1483 0.0295 0.0341 0.0919 0.0306 0.0824 0.0664 0.0345 0.0280 0.0825 0.0628 0.0399 0.0196 0.0435 0.0234 0.0224 0.0214 0.0383 0.0450 0.0444 0.0388 0.0579 0.0714 0.0574 0.0229 0.0381 0.1243 0.0223 0.0407 0.0625 0.0808 0.0371 0.0365 0.0622 0.0201 0.0305
0.0540 0.0272 0.0394 0.0480 0.0585 0.0263 0.0272 0.0365 0.0347 0.0227 0.0238 0.0231 0.0431 0.0367 0.0296 0.0490 0.0258 0.0586 0.0943 0.0235 0.0334 0.0486 0.0699 0.1534 0.0289 0.0334 0.0922 0.0294 0.0768 0.0610 0.0331 0.0260 0.0798 0.0626 0.0356 0.0193 0.0434 0.0223 0.0216 0.0207 0.0374 0.0430 0.0423 0.0398 0.0551 0.0709 0.0623 0.0218 0.0387 0.1105 0.0221 0.0417 0.0586 0.0848 0.0367 0.0339 0.0610 0.0194 0.0288
0.0481 0.0263 0.0366 0.0469 0.0610 0.0250 0.0263 0.0350 0.0344 0.0218 0.0220 0.0222 0.0437 0.0348 0.0282 0.0462 0.0245 0.0557 0.0882 0.0221 0.0314 0.0468 0.0684 0.1372 0.0270 0.0307 0.0905 0.0291 0.0683 0.0578 0.0335 0.0243 0.0763 0.0602 0.0355 0.0181 0.0443 0.0212 0.0208 0.0198 0.0371 0.0422 0.0412 0.0372 0.0538 0.0682 0.0577 0.0201 0.0376 0.0994 0.0202 0.0405 0.0569 0.0774 0.0354 0.0326 0.0633 0.0188 0.0286
0.0423 0.0237 0.0356 0.0476 0.0540 0.0233 0.0251 0.0368 0.0313 0.0207 0.0204 0.0207 0.0417 0.0334 0.0260 0.0418 0.0233 0.0536 0.0797 0.0208 0.0281 0.0436 0.0593 0.1317 0.0255 0.0299 0.0828 0.0284 0.0661 0.0541 0.0298 0.0234 0.0758 0.0532 0.0331 0.0175 0.0397 0.0205 0.0187 0.0183 0.0359 0.0424 0.0390 0.0351 0.0505 0.0606 0.0517 0.0195 0.0328 0.1001 0.0200 0.0370 0.0545 0.0725 0.0326 0.0310 0.0556 0.0176 0.0273
0.0414 0.0229 0.0338 0.0457 0.0512 0.0226 0.0229 0.0339 0.0306 0.0199 0.0200 0.0195 0.0390 0.0305 0.0255 0.0407 0.0223 0.0555 0.0815 0.0209 0.0265 0.0437 0.0545 0.1306 0.0234 0.0281 0.0798 0.0259 0.0703 0.0545 0.0281 0.0217 0.0729 0.0505 0.0315 0.0166 0.0377 0.0198 0.0178 0.0173 0.0337 0.0381 0.0357 0.0324 0.0482 0.0612 0.0533 0.0190 0.0316 0.1043 0.0189 0.0362 0.0485 0.0715 0.0315 0.0295 0.0536 0.0167 0.0265
0.0431 0.0227 0.0329 0.0424 0.0502 0.0215 0.0215 0.0321 0.0275 0.0183 0.0188 0.0188 0.0360 0.0302 0.0251 0.0410 0.0208 0.0479 0.0805 0.0199 0.0258 0.0439 0.0527 0.1327 0.0231 0.0254 0.0790 0.0247 0.0683 0.0527 0.0278 0.0208 0.0701 0.0469 0.0300 0.0159 0.0372 0.0173 0.0182 0.0161 0.0314 0.0366 0.0349 0.0308 0.0448 0.0580 0.0471 0.0174 0.0314 0.1027 0.0176 0.0360 0.0496 0.0679 0.0304 0.0285 0.0541 0.0161 0.0256
0.0396 0.0211 0.0310 0.0380 0.0466 0.0202 0.0201 0.0293 0.0272 0.0172 0.0178 0.0173 0.0336 0.0281 0.0229 0.0372 0.0203 0.0441 0.0716 0.0186 0.0247 0.0381 0.0550 0.1189 0.0215 0.0248 0.0679 0.0235 0.0552 0.0487 0.0264 0.0197 0.0621 0.0458 0.0273 0.0145 0.0348 0.0171 0.0162 0.0154 0.0291 0.0340 0.0328 0.0293 0.0434 0.0516 0.0463 0.0166 0.0314 0.0907 0.0169 0.0318 0.0491 0.0613 0.0288 0.0263 0.0483 0.0152 0.0235
0.0360 0.0192 0.0284 0.0397 0.0411 0.0191 0.0193 0.0266 0.0234 0.0167 0.0166 0.0163 0.0303 0.0269 0.0212 0.0337 0.0189 0.0417 0.0689 0.0170 0.0226 0.0363 0.0472 0.1051 0.0208 0.0240 0.0599 0.0234 0.0554 0.0475 0.0244 0.0177 0.0602 0.0431 0.0258 0.0141 0.0309 0.0159 0.0159 0.0145 0.0264 0.0319 0.0313 0.0276 0.0398 0.0463 0.0423 0.0153 0.0290 0.0878 0.0151 0.0309 0.0474 0.0541 0.0260 0.0250 0.0442 0.0147 0.0222
0.0337 0.0179 0.0260 0.0371 0.0399 0.0175 0.0181 0.0258 0.0224 0.0156 0.0153 0.0150 0.0298 0.0238 0.0195 0.0300 0.0177 0.0377 0.0650 0.0152 0.0210 0.0324 0.0393 0.0958 0.0183 0.0223 0.0542 0.0228 0.0540 0.0440 0.0212 0.0168 0.0555 0.0399 0.0237 0.0132 0.0295 0.0147 0.0145 0.0138 0.0252 0.0293 0.0276 0.0254 0.0364 0.0403 0.0382 0.0137 0.0265 0.0757 0.0143 0.0278 0.0425 0.0484 0.0246 0.0240 0.0404 0.0134 0.0199
0.0306 0.0162 0.0231 0.0300 0.0381 0.0155 0.0160 0.0221 0.0195 0.0138 0.0143 0.0140 0.0266 0.0219 0.0178 0.0292 0.0155 0.0335 0.0642 0.0141 0.0193 0.0314 0.0356 0.0903 0.0166 0.0198 0.0492 0.0193 0.0417 0.0379 0.0202 0.0151 0.0468 0.0356 0.0228 0.0115 0.0268 0.0131 0.0127 0.0125 0.0227 0.0267 0.0254 0.0233 0.0338 0.0385 0.0357 0.0130 0.0239 0.0762 0.0129 0.0255 0.0340 0.0441 0.0220 0.0218 0.0353 0.0120 0.0180
0.0270 0.0140 0.0203 0.0279 0.0339 0.0139 0.0144 0.0203 0.0183 0.0122 0.0123 0.0119 0.0237 0.0184 0.0154 0.0255 0.0135 0.0286 0.0503 0.0127 0.0164 0.0278 0.0307 0.0820 0.0147 0.0169 0.0443 0.0158 0.0379 0.0339 0.0184 0.0133 0.0431 0.0317 0.0192 0.0101 0.0249 0.0118 0.0112 0.0104 0.0206 0.0231 0.0220 0.0204 0.0295 0.0356 0.0296 0.0113 0.0199 0.0696 0.0114 0.0222 0.0312 0.0394 0.0188 0.0184 0.0317 0.0101 0.0162
0.0212 0.0116 0.0173 0.0227 0.0260 0.0111 0.0121 0.0167 0.0146 0.0099 0.0099 0.0096 0.0189 0.0154 0.0121 0.0204 0.0112 0.0254 0.0442 0.0101 0.0138 0.0230 0.0277 0.0711 0.0119 0.0139 0.0371 0.0141 0.0296 0.0270 0.0147 0.0109 0.0350 0.0243 0.0159 0.0081 0.0193 0.0097 0.0093 0.0086 0.0161 0.0187 0.0180 0.0161 0.0238 0.0304 0.0272 0.0092 0.0175 0.0533 0.0093 0.0189 0.0267 0.0323 0.0159 0.0148 0.0261 0.0086 0.0131
0.0154 0.0084 0.0116 0.0151 0.0184 0.0076 0.0087 0.0116 0.0099 0.0070 0.0070 0.0069 0.0128 0.0110 0.0087 0.0140 0.0082 0.0190 0.0319 0.0074 0.0097 0.0161 0.0195 0.0484 0.0085 0.0098 0.0262 0.0108 0.0207 0.0201 0.0106 0.0076 0.0233 0.0168 0.0112 0.0059 0.0137 0.0067 0.0067 0.0062 0.0111 0.0133 0.0131 0.0118 0.0169 0.0208 0.0193 0.0067 0.0129 0.0379 0.0066 0.0135 0.0198 0.0231 0.0111 0.0107 0.0198 0.0061 0.0094
0.0087 0.0049 0.0070 0.0092 0.0111 0.0046 0.0050 0.0068 0.0059 0.0041 0.0042 0.0042 0.0079 0.0062 0.0052 0.0087 0.0047 0.0127 0.0215 0.0045 0.0057 0.0113 0.0132 0.0314 0.0050 0.0057 0.0158 0.0057 0.0121 0.0111 0.0065 0.0046 0.0143 0.0102 0.0067 0.0035 0.0082 0.0041 0.0039 0.0036 0.0067 0.0077 0.0073 0.0067 0.0098 0.0142 0.0124 0.0041 0.0078 0.0272 0.0040 0.0081 0.0112 0.0137 0.0066 0.0062 0.0120 0.0035 0.0056
0.0039 0.0021 0.0030 0.0041 0.0045 0.0020 0.0021 0.0028 0.0025 0.0018 0.0018 0.0018 0.0034 0.0029 0.0023 0.0037 0.0020 0.0045 0.0075 0.0019 0.0024 0.0041 0.0052 0.0131 0.0022 0.0024 0.0074 0.0023 0.0053 0.0050 0.0029 0.0019 0.0063 0.0045 0.0027 0.0015 0.0032 0.0018 0.0017 0.0016 0.0028 0.0034 0.0033 0.0031 0.0043 0.0055 0.0046 0.0017 0.0029 0.0102 0.0018 0.0035 0.0049 0.0063 0.0028 0.0026 0.0052 0.0015 0.0025
0.0011 0.0006 0.0009 0.0013 0.0014 0.0006 0.0007 0.0009 0.0008 0.0005 0.0005 0.0005 0.0010 0.0008 0.0007 0.0011 0.0006 0.0014 0.0022 0.0006 0.0007 0.0012 0.0016 0.0040 0.0007 0.0007 0.0023 0.0007 0.0016 0.0015 0.0008 0.0006 0.0019 0.0014 0.0008 0.0004 0.0010 0.0005 0.0005 0.0005 0.0009 0.0010 0.0010 0.0009 0.0013 0.0017 0.0014 0.0005 0.0009 0.0030 0.0005 0.0010 0.0015 0.0020 0.0009 0.0008 0.0017 0.0004 0.0008
0.0002 0.0001 0.0002 0.0003 0.0003 0.0001 0.0001 0.0002 0.0002 0.0001 0.0001 0.0001 0.0002 0.0002 0.0002 0.0003 0.0001 0.0003 0.0006 0.0001 0.0002 0.0003 0.0004 0.0009 0.0002 0.0002 0.0005 0.0002 0.0004 0.0003 0.0002 0.0001 0.0004 0.0003 0.0002 0.0001 0.0002 0.0001 0.0001 0.0001 0.0002 0.0002 0.0002 0.0002 0.0003 0.0004 0.0003 0.0001 0.0002 0.0007 0.0001 0.0002 0.0003 0.0004 0.0002 0.0002 0.0004 0.0001 0.0002
0.0001 0.0000 0.0000 0.0001 0.0001 0.0000 0.0000 0.0000 0.0000 0.0000 0.0000 0.0000 0.0001 0.0000 0.0000 0.0001 0.0000 0.0001 0.0001 0.0000 0.0000 0.0001 0.0001 0.0002 0.0000 0.0000 0.0001 0.0000 0.0001 0.0001 0.0000 0.0000 0.0001 0.0001 0.0000 0.0000 0.0001 0.0000 0.0000 0.0000 0.0000 0.0001 0.0001 0.0001 0.0001 0.0001 0.0001 0.0000 0.0000 0.0001 0.0000 0.0001 0.0001 0.0001 0.0000 0.0000 0.0001 0.0000 0.0000
0.0000 0.0000 0.0000 0.0000 0.0000 0.0000 0.0000 0.0000 0.0000 0.0000 0.0000 0.0000 0.0000 0.0000 0.0000 0.0000 0.0000 0.0000 0.0000 0.0000 0.0000 0.0000 0.0000 0.0001 0.0000 0.0000 0.0000 0.0000 0.0000 0.0000 0.0000 0.0000 0.0000 0.0000 0.0000 0.0000 0.0000 0.0000 0.0000 0.0000 0.0000 0.0000 0.0000 0.0000 0.0000 0.0000 0.0000 0.0000 0.0000 0.0001 0.0000 0.0000 0.0000 0.0000 0.0000 0.0000 0.0000 0.0000 0.0000
0.0000 0.0000 0.0000 0.0000 0.0000 0.0000 0.0000 0.0000 0.0000 0.0000 0.0000 0.0000 0.0000 0.0000 0.0000 0.0000 0.0000 0.0000 0.0000 0.0000 0.0000 0.0000 0.0000 0.0000 0.0000 0.0000 0.0000 0.0000 0.0000 0.0000 0.0000 0.0000 0.0000 0.0000 0.0000 0.0000 0.0000 0.0000 0.0000 0.0000 0.0000 0.0000 0.0000 0.0000 0.0000 0.0000 0.0000 0.0000 0.0000 0.0000 0.0000 0.0000 0.0000 0.0000 0.0000 0.0000 0.0000 0.0000 0.0000
0.0000 0.0000 0.0000 0.0000 0.0000 0.0000 0.0000 0.0000 0.0000 0.0000 0.0000 0.0000 0.0000 0.0000 0.0000 0.0000 0.0000 0.0000 0.0000 0.0000 0.0000 0.0000 0.0000 0.0000 0.0000 0.0000 0.0000 0.0000 0.0000 0.0000 0.0000 0.0000 0.0000 0.0000 0.0000 0.0000 0.0000 0.0000 0.0000 0.0000 0.0000 0.0000 0.0000 0.0000 0.0000 0.0000 0.0000 0.0000 0.0000 0.0000 0.0000 0.0000 0.0000 0.0000 0.0000 0.0000 0.0000 0.0000 0.0000
0.0000 0.0000 0.0000 0.0000 0.0000 0.0000 0.0000 0.0000 0.0000 0.0000 0.0000 0.0000 0.0000 0.0000 0.0000 0.0000 0.0000 0.0000 0.0000 0.0000 0.0000 0.0000 0.0000 0.0000 0.0000 0.0000 0.0000 0.0000 0.0000 0.0000 0.0000 0.0000 0.0000 0.0000 0.0000 0.0000 0.0000 0.0000 0.0000 0.0000 0.0000 0.0000 0.0000 0.0000 0.0000 0.0000 0.0000 0.0000 0.0000 0.0000 0.0000 0.0000 0.0000 0.0000 0.0000 0.0000 0.0000 0.0000 0.0000
0.0000 0.0000 0.0000 0.0000 0.0000 0.0000 0.0000 0.0000 0.0000 0.0000 0.0000 0.0000 0.0000 0.0000 0.0000 0.0000 0.0000 0.0000 0.0000 0.0000 0.0000 0.0000 0.0000 0.0000 0.0000 0.0000 0.0000 0.0000 0.0000 0.0000 0.0000 0.0000 0.0000 0.0000 0.0000 0.0000 0.0000 0.0000 0.0000 0.0000 0.0000 0.0000 0.0000 0.0000 0.0000 0.0000 0.0000 0.0000 0.0000 0.0000 0.0000 0.0000 0.0000 0.0000 0.0000 0.0000 0.0000 0.0000 0.0000
0.0000 0.0000 0.0000 0.0000 0.0000 0.0000 0.0000 0.0000 0.0000 0.0000 0.0000 0.0000 0.0000 0.0000 0.0000 0.0000 0.0000 0.0000 0.0000 0.0000 0.0000 0.0000 0.0000 0.0000 0.0000 0.0000 0.0000 0.0000 0.0000 0.0000 0.0000 0.0000 0.0000 0.0000 0.0000 0.0000 0.0000 0.0000 0.0000 0.0000 0.0000 0.0000 0.0000 0.0000 0.0000 0.0000 0.0000 0.0000 0.0000 0.0000 0.0000 0.0000 0.0000 0.0000 0.0000 0.0000 0.0000 0.0000 0.0000
0.0000 0.0000 0.0000 0.0000 0.0000 0.0000 0.0000 0.0000 0.0000 0.0000 0.0000 0.0000 0.0000 0.0000 0.0000 0.0000 0.0000 0.0000 0.0000 0.0000 0.0000 0.0000 0.0000 0.0000 0.0000 0.0000 0.0000 0.0000 0.0000 0.0000 0.0000 0.0000 0.0000 0.0000 0.0000 0.0000 0.0000 0.0000 0.0000 0.0000 0.0000 0.0000 0.0000 0.0000 0.0000 0.0000 0.0000 0.0000 0.0000 0.0000 0.0000 0.0000 0.0000 0.0000 0.0000 0.0000 0.0000 0.0000 0.0000
0.0000 0.0000 0.0000 0.0000 0.0000 0.0000 0.0000 0.0000 0.0000 0.0000 0.0000 0.0000 0.0000 0.0000 0.0000 0.0000 0.0000 0.0000 0.0000 0.0000 0.0000 0.0000 0.0000 0.0000 0.0000 0.0000 0.0000 0.0000 0.0000 0.0000 0.0000 0.0000 0.0000 0.0000 0.0000 0.0000 0.0000 0.0000 0.0000 0.0000 0.0000 0.0000 0.0000 0.0000 0.0000 0.0000 0.0000 0.0000 0.0000 0.0000 0.0000 0.0000 0.0000 0.0000 0.0000 0.0000 0.0000 0.0000 0.0000
0.0000 0.0000 0.0000 0.0000 0.0000 0.0000 0.0000 0.0000 0.0000 0.0000 0.0000 0.0000 0.0000 0.0000 0.0000 0.0000 0.0000 0.0000 0.0000 0.0000 0.0000 0.0000 0.0000 0.0000 0.0000 0.0000 0.0000 0.0000 0.0000 0.0000 0.0000 0.0000 0.0000 0.0000 0.0000 0.0000 0.0000 0.0000 0.0000 0.0000 0.0000 0.0000 0.0000 0.0000 0.0000 0.0000 0.0000 0.0000 0.0000 0.0000 0.0000 0.0000 0.0000 0.0000 0.0000 0.0000 0.0000 0.0000 0.0000
0.0000 0.0000 0.0000 0.0000 0.0000 0.0000 0.0000 0.0000 0.0000 0.0000 0.0000 0.0000 0.0000 0.0000 0.0000 0.0000 0.0000 0.0000 0.0000 0.0000 0.0000 0.0000 0.0000 0.0000 0.0000 0.0000 0.0000 0.0000 0.0000 0.0000 0.0000 0.0000 0.0000 0.0000 0.0000 0.0000 0.0000 0.0000 0.0000 0.0000 0.0000 0.0000 0.0000 0.0000 0.0000 0.0000 0.0000 0.0000 0.0000 0.0000 0.0000 0.0000 0.0000 0.0000 0.0000 0.0000 0.0000 0.0000 0.0000
0.0000 0.0000 0.0000 0.0000 0.0000 0.0000 0.0000 0.0000 0.0000 0.0000 0.0000 0.0000 0.0000 0.0000 0.0000 0.0000 0.0000 0.0000 0.0000 0.0000 0.0000 0.0000 0.0000 0.0000 0.0000 0.0000 0.0000 0.0000 0.0000 0.0000 0.0000 0.0000 0.0000 0.0000 0.0000 0.0000 0.0000 0.0000 0.0000 0.0000 0.0000 0.0000 0.0000 0.0000 0.0000 0.0000 0.0000 0.0000 0.0000 0.0000 0.0000 0.0000 0.0000 0.0000 0.0000 0.0000 0.0000 0.0000 0.0000
0.0000 0.0000 0.0000 0.0000 0.0000 0.0000 0.0000 0.0000 0.0000 0.0000 0.0000 0.0000 0.0000 0.0000 0.0000 0.0000 0.0000 0.0000 0.0000 0.0000 0.0000 0.0000 0.0000 0.0000 0.0000 0.0000 0.0000 0.0000 0.0000 0.0000 0.0000 0.0000 0.0000 0.0000 0.0000 0.0000 0.0000 0.0000 0.0000 0.0000 0.0000 0.0000 0.0000 0.0000 0.0000 0.0000 0.0000 0.0000 0.0000 0.0001 0.0000 0.0000 0.0000 0.0000 0.0000 0.0000 0.0000 0.0000 0.0000
0.0000 0.0000 0.0000 0.0000 0.0000 0.0000 0.0000 0.0000 0.0000 0.0000 0.0000 0.0000 0.0000 0.0000 0.0000 0.0000 0.0000 0.0000 0.0000 0.0000 0.0000 0.0000 0.0000 0.0001 0.0000 0.0000 0.0000 0.0000 0.0000 0.0000 0.0000 0.0000 0.0000 0.0000 0.0000 0.0000 0.0000 0.0000 0.0000 0.0000 0.0000 0.0000 0.0000 0.0000 0.0000 0.0000 0.0000 0.0000 0.0000 0.0001 0.0000 0.0000 0.0000 0.0000 0.0000 0.0000 0.0000 0.0000 0.0000
0.0000 0.0000 0.0000 0.0000 0.0000 0.0000 0.0000 0.0000 0.0000 0.0000 0.0000 0.0000 0.0000 0.0000 0.0000 0.0000 0.0000 0.0000 0.0001 0.0000 0.0000 0.0000 0.0000 0.0001 0.0000 0.0000 0.0000 0.0000 0.0000 0.0000 0.0000 0.0000 0.0000 0.0000 0.0000 0.0000 0.0000 0.0000 0.0000 0.0000 0.0000 0.0000 0.0000 0.0000 0.0000 0.0000 0.0000 0.0000 0.0000 0.0001 0.0000 0.0000 0.0000 0.0000 0.0000 0.0000 0.0000 0.0000 0.0000
0.0001 0.0000 0.0000 0.0000 0.0001 0.0000 0.0000 0.0000 0.0000 0.0000 0.0000 0.0000 0.0000 0.0000 0.0000 0.0000 0.0000 0.0001 0.0001 0.0000 0.0000 0.0001 0.0001 0.0002 0.0000 0.0000 0.0001 0.0000 0.0001 0.0001 0.0000 0.0000 0.0001 0.0001 0.0000 0.0000 0.0000 0.0000 0.0000 0.0000 0.0000 0.0000 0.0000 0.0000 0.0001 0.0001 0.0001 0.0000 0.0000 0.0002 0.0000 0.0000 0.0001 0.0001 0.0000 0.0000 0.0001 0.0000 0.0000
0.0002 0.0001 0.0001 0.0001 0.0002 0.0001 0.0001 0.0001 0.0001 0.0001 0.0001 0.0001 0.0001 0.0001 0.0001 0.0001 0.0001 0.0002 0.0003 0.0001 0.0001 0.0002 0.0002 0.0005 0.0001 0.0001 0.0003 0.0001 0.0002 0.0002 0.0001 0.0001 0.0002 0.0002 0.0001 0.0001 0.0001 0.0001 0.0001 0.0001 0.0001 0.0001 0.0001 0.0001 0.0002 0.0002 0.0002 0.0001 0.0001 0.0004 0.0001 0.0001 0.0002 0.0002 0.0001 0.0001 0.0002 0.0001 0.0001
0.0005 0.0003 0.0004 0.0005 0.0007 0.0002 0.0003 0.0004 0.0003 0.0002 0.0002 0.0002 0.0004 0.0003 0.0003 0.0005 0.0002 0.0006 0.0009 0.0002 0.0003 0.0006 0.0006 0.0020 0.0003 0.0003 0.0009 0.0003 0.0007 0.0007 0.0003 0.0002 0.0008 0.0006 0.0003 0.0002 0.0005 0.0002 0.0002 0.0002 0.0004 0.0004 0.0004 0.0004 0.0005 0.0007 0.0005 0.0002 0.0004 0.0014 0.0002 0.0005 0.0006 0.0008 0.0004 0.0003 0.0006 0.0002 0.0003
0.0013 0.0007 0.0010 0.0013 0.0016 0.0006 0.0007 0.0010 0.0009 0.0006 0.0006 0.0006 0.0011 0.0009 0.0007 0.0012 0.0007 0.0015 0.0025 0.0006 0.0007 0.0015 0.0017 0.0043 0.0007 0.0008 0.0022 0.0008 0.0018 0.0017 0.0009 0.0006 0.0020 0.0014 0.0009 0.0005 0.0012 0.0006 0.0006 0.0005 0.0010 0.0011 0.0011 0.0009 0.0013 0.0018 0.0014 0.0005 0.0010 0.0034 0.0006 0.0011 0.0016 0.0020 0.0009 0.0009 0.0015 0.0005 0.0008
0.0026 0.0013 0.0020 0.0025 0.0034 0.0013 0.0013 0.0020 0.0017 0.0012 0.0011 0.0011 0.0022 0.0018 0.0014 0.0024 0.0013 0.0034 0.0051 0.0012 0.0015 0.0030 0.0037 0.0100 0.0014 0.0015 0.0048 0.0017 0.0037 0.0034 0.0019 0.0012 0.0043 0.0030 0.0019 0.0010 0.0023 0.0011 0.0010 0.0010 0.0018 0.0022 0.0020 0.0019 0.0026 0.0039 0.0032 0.0011 0.0020 0.0073 0.0011 0.0023 0.0034 0.0042 0.0019 0.0018 0.0033 0.0010 0.0016
0.0042 0.0021 0.0031 0.0041 0.0056 0.0019 0.0022 0.0030 0.0026 0.0018 0.0018 0.0017 0.0034 0.0027 0.0022 0.0035 0.0019 0.0043 0.0078 0.0018 0.0023 0.0042 0.0051 0.0125 0.0021 0.0024 0.0066 0.0025 0.0055 0.0053 0.0031 0.0019 0.0068 0.0044 0.0030 0.0015 0.0037 0.0017 0.0016 0.0015 0.0029 0.0034 0.0030 0.0028 0.0040 0.0053 0.0044 0.0016 0.0031 0.0100 0.0016 0.0034 0.0048 0.0055 0.0027 0.0027 0.0050 0.0015 0.0024
0.0053 0.0025 0.0038 0.0056 0.0063 0.0024 0.0027 0.0038 0.0034 0.0022 0.0022 0.0022 0.0043 0.0034 0.0027 0.0044 0.0025 0.0056 0.0105 0.0022 0.0029 0.0052 0.0063 0.0153 0.0026 0.0031 0.0080 0.0030 0.0071 0.0068 0.0038 0.0023 0.0081 0.0058 0.0037 0.0018 0.0045 0.0020 0.0020 0.0019 0.0038 0.0044 0.0039 0.0035 0.0051 0.0064 0.0058 0.0021 0.0041 0.0126 0.0020 0.0042 0.0061 0.0070 0.0033 0.0034 0.0062 0.0018 0.0031
0.0058 0.0027 0.0044 0.0060 0.0072 0.0027 0.0031 0.0045 0.0037 0.0024 0.0025 0.0024 0.0047 0.0037 0.0032 0.0049 0.0027 0.0066 0.0109 0.0026 0.0031 0.0054 0.0064 0.0169 0.0028 0.0034 0.0090 0.0033 0.0084 0.0075 0.0039 0.0026 0.0095 0.0065 0.0040 0.0020 0.0053 0.0024 0.0022 0.0022 0.0040 0.0047 0.0042 0.0038 0.0055 0.0069 0.0064 0.0022 0.0044 0.0131 0.0023 0.0045 0.0065 0.0080 0.0037 0.0037 0.0066 0.0020 0.0035
0.0070 0.0029 0.0045 0.0056 0.0080 0.0028 0.0031 0.0044 0.0039 0.0026 0.0025 0.0025 0.0051 0.0040 0.0033 0.0053 0.0028 0.0072 0.0115 0.0027 0.0033 0.0058 0.0073 0.0200 0.0030 0.0034 0.0101 0.0036 0.0092 0.0081 0.0041 0.0027 0.0097 0.0067 0.0041 0.0022 0.0056 0.0025 0.0023 0.0022 0.0043 0.0049 0.0045 0.0041 0.0058 0.0080 0.0069 0.0024 0.0044 0.0147 0.0024 0.0050 0.0074 0.0086 0.0040 0.0040 0.0072 0.0021 0.0035
0.0069 0.0028 0.0043 0.0057 0.0075 0.0027 0.0031 0.0042 0.0037 0.0026 0.0025 0.0024 0.0048 0.0040 0.0031 0.0053 0.0028 0.0070 0.0128 0.0027 0.0033 0.0066 0.0077 0.0200 0.0030 0.0036 0.0108 0.0034 0.0087 0.0081 0.0042 0.0027 0.0090 0.0066 0.0039 0.0021 0.0058 0.0023 0.0024 0.0022 0.0041 0.0048 0.0045 0.0041 0.0059 0.0081 0.0072 0.0024 0.0046 0.0157 0.0024 0.0053 0.0073 0.0094 0.0039 0.0039 0.0077 0.0021 0.0036
0.0063 0.0029 0.0042 0.0056 0.0073 0.0026 0.0030 0.0042 0.0039 0.0024 0.0025 0.0024 0.0047 0.0038 0.0031 0.0053 0.0027 0.0070 0.0129 0.0026 0.0031 0.0069 0.0082 0.0192 0.0029 0.0034 0.0104 0.0035 0.0085 0.0075 0.0039 0.0027 0.0089 0.0068 0.0038 0.0020 0.0055 0.0023 0.0021 0.0022 0.0042 0.0048 0.0043 0.0038 0.0056 0.0084 0.0070 0.0025 0.0047 0.0169 0.0023 0.0049 0.0070 0.0087 0.0040 0.0038 0.0079 0.0020 0.0034
0.0063 0.0027 0.0042 0.0054 0.0068 0.0026 0.0030 0.0042 0.0040 0.0024 0.0024 0.0024 0.0048 0.0037 0.0031 0.0049 0.0027 0.0063 0.0110 0.0025 0.0030 0.0061 0.0071 0.0186 0.0027 0.0032 0.0097 0.0034 0.0085 0.0075 0.0038 0.0025 0.0092 0.0062 0.0038 0.0020 0.0051 0.0024 0.0022 0.0021 0.0042 0.0047 0.0043 0.0039 0.0054 0.0074 0.0064 0.0022 0.0042 0.0149 0.0022 0.0047 0.0071 0.0083 0.0037 0.0037 0.0070 0.0019 0.0032
0.0057 0.0026 0.0039 0.0055 0.0071 0.0025 0.0027 0.0039 0.0036 0.0022 0.0023 0.0023 0.0044 0.0036 0.0028 0.0047 0.0025 0.0065 0.0114 0.0023 0.0029 0.0051 0.0072 0.0187 0.0027 0.0031 0.0100 0.0034 0.0083 0.0072 0.0035 0.0023 0.0085 0.0062 0.0036 0.0019 0.0050 0.0023 0.0020 0.0020 0.0039 0.0045 0.0041 0.0036 0.0052 0.0075 0.0068 0.0021 0.0043 0.0134 0.0022 0.0043 0.0068 0.0082 0.0036 0.0035 0.0074 0.0019 0.0031
0.0052 0.0024 0.0036 0.0053 0.0063 0.0024 0.0026 0.0039 0.0035 0.0022 0.0022 0.0021 0.0042 0.0034 0.0028 0.0046 0.0024 0.0060 0.0114 0.0023 0.0028 0.0057 0.0065 0.0197 0.0025 0.0029 0.0096 0.0031 0.0072 0.0066 0.0034 0.0022 0.0078 0.0060 0.0033 0.0018 0.0047 0.0021 0.0019 0.0019 0.0037 0.0042 0.0038 0.0035 0.0050 0.0070 0.0063 0.0021 0.0042 0.0140 0.0021 0.0047 0.0071 0.0083 0.0034 0.0034 0.0065 0.0018 0.0030
0.0050 0.0023 0.0034 0.0049 0.0063 0.0023 0.0025 0.0037 0.0030 0.0021 0.0021 0.0020 0.0039 0.0031 0.0025 0.0043 0.0023 0.0060 0.0117 0.0021 0.0026 0.0055 0.0070 0.0179 0.0024 0.0029 0.0093 0.0029 0.0072 0.0064 0.0032 0.0021 0.0077 0.0060 0.0033 0.0017 0.0043 0.0020 0.0019 0.0018 0.0034 0.0039 0.0036 0.0033 0.0047 0.0067 0.0064 0.0020 0.0042 0.0129 0.0020 0.0042 0.0065 0.0078 0.0032 0.0032 0.0068 0.0017 0.0030
0.0048 0.0021 0.0032 0.0046 0.0057 0.0021 0.0023 0.0035 0.0030 0.0019 0.0020 0.0018 0.0038 0.0030 0.0024 0.0042 0.0022 0.0056 0.0109 0.0021 0.0024 0.0054 0.0062 0.0191 0.0024 0.0026 0.0093 0.0027 0.0066 0.0061 0.0030 0.0020 0.0069 0.0053 0.0031 0.0016 0.0041 0.0019 0.0018 0.0017 0.0033 0.0037 0.0032 0.0030 0.0043 0.0068 0.0058 0.0019 0.0038 0.0141 0.0019 0.0043 0.0065 0.0076 0.0031 0.0030 0.0061 0.0016 0.0028
0.0045 0.0021 0.0031 0.0043 0.0053 0.0020 0.0023 0.0032 0.0028 0.0019 0.0019 0.0018 0.0035 0.0028 0.0024 0.0041 0.0020 0.0056 0.0097 0.0020 0.0023 0.0051 0.0063 0.0172 0.0023 0.0025 0.0096 0.0025 0.0063 0.0060 0.0029 0.0019 0.0067 0.0053 0.0029 0.0015 0.0039 0.0018 0.0017 0.0016 0.0031 0.0034 0.0032 0.0029 0.0042 0.0068 0.0055 0.0018 0.0032 0.0139 0.0018 0.0039 0.0052 0.0079 0.0031 0.0028 0.0066 0.0015 0.0027
0.0041 0.0019 0.0031 0.0040 0.0052 0.0019 0.0021 0.0030 0.0028 0.0017 0.0017 0.0017 0.0033 0.0027 0.0021 0.0034 0.0019 0.0056 0.0101 0.0018 0.0022 0.0044 0.0057 0.0134 0.0021 0.0024 0.0080 0.0025 0.0059 0.0054 0.0027 0.0019 0.0065 0.0047 0.0029 0.0015 0.0038 0.0017 0.0016 0.0015 0.0029 0.0033 0.0030 0.0027 0.0038 0.0057 0.0055 0.0017 0.0033 0.0112 0.0017 0.0032 0.0047 0.0068 0.0028 0.0027 0.0057 0.0015 0.0025
0.0039 0.0019 0.0028 0.0038 0.0051 0.0018 0.0020 0.0027 0.0027 0.0016 0.0017 0.0016 0.0032 0.0026 0.0021 0.0036 0.0019 0.0053 0.0110 0.0018 0.0020 0.0052 0.0058 0.0149 0.0020 0.0023 0.0084 0.0024 0.0057 0.0051 0.0026 0.0018 0.0062 0.0047 0.0027 0.0014 0.0035 0.0016 0.0015 0.0014 0.0028 0.0032 0.0028 0.0026 0.0038 0.0062 0.0056 0.0017 0.0035 0.0134 0.0016 0.0033 0.0049 0.0066 0.0028 0.0025 0.0061 0.0014 0.0024
0.0038 0.0017 0.0026 0.0036 0.0044 0.0017 0.0018 0.0025 0.0024 0.0015 0.0016 0.0016 0.0030 0.0024 0.0019 0.0034 0.0017 0.0048 0.0094 0.0017 0.0019 0.0049 0.0058 0.0156 0.0019 0.0021 0.0082 0.0023 0.0057 0.0051 0.0024 0.0016 0.0057 0.0043 0.0023 0.0013 0.0031 0.0015 0.0014 0.0014 0.0026 0.0029 0.0027 0.0024 0.0034 0.0058 0.0049 0.0016 0.0032 0.0120 0.0015 0.0035 0.0048 0.0067 0.0025 0.0025 0.0058 0.0013 0.0022
0.0035 0.0017 0.0025 0.0033 0.0042 0.0016 0.0018 0.0025 0.0023 0.0015 0.0015 0.0014 0.0029 0.0022 0.0019 0.0034 0.0016 0.0046 0.0081 0.0016 0.0018 0.0048 0.0064 0.0160 0.0018 0.0019 0.0093 0.0021 0.0052 0.0048 0.0022 0.0015 0.0054 0.0043 0.0023 0.0012 0.0030 0.0014 0.0013 0.0012 0.0025 0.0028 0.0025 0.0022 0.0033 0.0062 0.0048 0.0015 0.0028 0.0115 0.0014 0.0035 0.0044 0.0073 0.0025 0.0023 0.0061 0.0012 0.0022
0.0031 0.0015 0.0024 0.0031 0.0039 0.0015 0.0016 0.0024 0.0022 0.0014 0.0014 0.0014 0.0028 0.0021 0.0017 0.0030 0.0016 0.0044 0.0073 0.0015 0.0017 0.0039 0.0048 0.0140 0.0017 0.0019 0.0072 0.0019 0.0046 0.0042 0.0022 0.0014 0.0050 0.0040 0.0023 0.0011 0.0029 0.0013 0.0013 0.0012 0.0024 0.0027 0.0024 0.0021 0.0032 0.0052 0.0043 0.0013 0.0026 0.0108 0.0014 0.0029 0.0043 0.0059 0.0023 0.0022 0.0050 0.0011 0.0020
0.0033 0.0015 0.0022 0.0030 0.0039 0.0014 0.0016 0.0023 0.0023 0.0013 0.0013 0.0013 0.0025 0.0021 0.0016 0.0029 0.0014 0.0041 0.0080 0.0014 0.0016 0.0040 0.0049 0.0125 0.0016 0.0017 0.0073 0.0019 0.0048 0.0042 0.0021 0.0013 0.0047 0.0040 0.0021 0.0011 0.0029 0.0012 0.0012 0.0011 0.0023 0.0026 0.0023 0.0020 0.0029 0.0048 0.0043 0.0013 0.0028 0.0096 0.0013 0.0027 0.0042 0.0060 0.0021 0.0021 0.0047 0.0011 0.0019
0.0029 0.0013 0.0021 0.0027 0.0036 0.0013 0.0015 0.0021 0.0019 0.0012 0.0012 0.0012 0.0023 0.0019 0.0015 0.0025 0.0014 0.0036 0.0072 0.0013 0.0015 0.0035 0.0044 0.0102 0.0014 0.0016 0.0054 0.0017 0.0042 0.0039 0.0020 0.0012 0.0044 0.0036 0.0019 0.0010 0.0026 0.0012 0.0011 0.0010 0.0021 0.0023 0.0021 0.0020 0.0028 0.0040 0.0039 0.0012 0.0026 0.0079 0.0012 0.0026 0.0039 0.0046 0.0018 0.0019 0.0040 0.0010 0.0017
