Fp1 Fz F3 F7 FC5 FC1 C3 T7 CP5 CP1 Pz P3 P7 O1 Oz O2 P4 P8 CP6 CP2 FCz C4 T8 FC6 FC2 F4 F8 Fp2 AF7 AF3 Fpz F1 F5 FT7 FC3 C1 C5 CP3 CPz P1 P5 PO7 PO3 POz PO4 PO8 P6 P2 CP4 C6 C2 FC4 FT8 F6 F2 AF4 AF8 Cz AFz
4.4255 4.8522 4.0496 6.5385 3.8482 1.6268 2.2233 12.7751 4.1831 1.8898 1.8106 2.2989 3.9477 3.2193 4.4633 2.2933 5.0890 13.1376 3.7631 1.3013 3.2079 1.9939 4.6676 2.0279 2.7097 5.5058 2.4333 4.3546 4.2084 3.9037 3.2070 3.2369 4.8450 3.8113 1.7999 1.3246 2.7866 2.7091 2.1101 1.3871 5.6943 6.3273 2.8546 4.3800 3.8685 8.9058 15.4714 2.6654 1.7133 5.5576 1.1021 2.4090 3.3559 4.9366 4.4305 5.6230 3.6239 1.6688 4.0095
51.5317 53.4760 73.6099 135.2284 63.0309 19.6346 43.6531 335.3980 108.3446 24.5836 20.8475 38.3190 79.4169 70.5244 68.3501 40.6372 48.6881 142.9249 47.6800 17.3237 39.0997 28.0146 56.0559 26.5455 37.6517 84.1742 45.3211 55.1145 61.2677 55.3586 39.5297 41.2304 68.2276 52.9236 23.8589 18.1952 53.1212 54.9804 23.6993 18.4314 141.3029 150.0103 48.1982 60.3923 64.2364 102.0417 137.1690 38.6873 28.5311 58.0951 13.3808 33.8776 45.4074 87.6116 57.2688 72.9194 49.7413 20.3974 51.3894
1196.0728 1643.8667 1475.8931 2191.9590 1290.6862 595.1218 786.1660 4634.6924 1596.9390 598.2709 656.5818 873.3169 1541.6432 1272.0746 1012.9368 866.0547 832.7776 1433.1852 926.1089 482.5857 1168.3185 592.3867 1284.0464 670.1453 914.9528 1837.7871 833.9310 1221.1057 1358.7133 1423.7181 973.9401 1136.1968 1526.1046 1300.3502 560.9802 502.7257 981.4803 970.2445 850.5739 471.8469 2325.9441 2640.3845 1192.8942 1342.7682 1437.1355 1367.2257 1331.0331 781.4527 654.5330 1149.9265 371.0574 852.2811 1230.6584 1730.6976 1404.8755 1611.3374 1230.0916 660.5747 1152.3766
2525.8562 3825.5505 2931.7998 2631.9275 1718.8900 1314.3551 1108.2909 4499.7241 1810.0614 1153.2068 1114.0708 1461.9817 1975.5454 1598.7896 1343.9373 1249.4504 1382.2101 2055.6477 1576.3198 935.8748 2716.3516 1091.9518 2092.8848 1111.5077 1839.1497 3908.8203 1377.6554 2403.8496 2884.4697 3040.3896 1909.5857 2530.6775 2938.0632 2281.6943 1088.2769 998.7488 1420.2592 1491.1058 1667.3668 826.9982 2644.1191 3015.9287 1841.8154 2062.2957 2077.7576 1999.8663 1990.4742 1191.5131 1224.1991 1893.1422 775.8191 1803.2426 1929.5851 3254.1072 3075.6384 3191.9961 2634.9795 1435.4027 2345.4587
2254.6257 3000.1917 2656.3457 1677.9641 1105.7528 1296.2430 718.2930 2010.0486 1083.1381 878.5204 854.7272 1014.2067 1032.4713 862.1708 811.0102 793.8538 1010.6707 1383.5796 1129.4447 741.7379 2294.3921 746.1405 1320.3829 821.2872 1615.2377 3921.7339 1085.7831 2167.6343 2549.2976 2863.2461 1566.5225 2401.1865 2496.0942 1206.0359 900.7250 761.6652 944.5720 1046.4044 1282.5929 704.6496 1317.8529 1456.2972 1134.5137 1325.0261 1344.3398 1265.9220 1394.8047 865.1594 900.7540 1203.4241 610.1210 1718.4778 1147.8240 2935.0952 2720.6636 3111.8862 2477.1992 1172.0542 1978.2867
1898.7758 2289.7798 2339.3315 1138.2288 710.4623 1111.1073 476.5610 960.4049 687.8113 634.6820 581.9498 685.6387 578.9636 520.8900 470.9724 459.1681 633.0980 728.8531 699.1622 515.2515 1778.9446 483.6340 779.1053 579.5906 1311.3577 3403.5503 788.9128 1748.0995 2196.2681 2554.5354 1181.0537 2022.0446 2038.3263 719.2831 719.5922 547.5147 618.1559 691.9011 907.2151 491.0432 773.5256 796.5665 749.5906 799.2305 785.1033 701.7725 768.5740 569.6904 591.1647 733.2802 410.1678 1418.5150 666.0960 2431.9998 2274.2629 2662.4265 2049.8284 816.0128 1564.4628
1484.4442 1872.9702 1902.1537 800.4144 491.9634 947.0474 312.4294 544.3070 396.0550 433.8780 377.9386 431.5757 350.3498 334.8080 304.7834 294.7216 386.7165 386.8882 422.9727 357.0632 1486.8993 311.1388 492.6410 394.7451 1081.8369 2484.7576 571.1616 1242.7695 1727.9167 2025.8900 872.5007 1672.5269 1622.0353 424.3684 604.5757 415.4929 360.8770 427.8306 641.1188 316.8284 456.1786 477.4480 487.9847 532.5052 498.4641 441.3286 449.6290 348.2563 351.6577 463.1376 308.3941 1031.4091 439.8383 1708.6840 1856.1259 1894.8876 1463.5879 631.9372 1208.5614
1000.4858 1316.6840 1325.1857 553.4771 347.5947 728.6442 223.2869 318.5046 259.9124 285.8519 242.7820 282.6993 230.4301 231.9333 221.3854 199.7234 265.6162 254.5690 288.2233 237.4645 1081.4878 224.9901 322.1316 281.4338 805.5891 1676.1388 420.1132 843.9177 1191.9340 1338.4495 567.1015 1215.0345 1124.0104 277.3223 447.4571 324.9118 237.5825 284.4973 406.3511 206.1705 302.1151 308.3204 335.1576 385.2673 350.1532 290.0593 305.0693 236.8782 235.3098 308.7829 235.3721 748.6412 280.1581 1194.6630 1276.5513 1227.6239 1050.3462 468.9999 772.9553
728.1750 904.3726 930.9736 393.5322 246.2440 506.6109 160.6010 227.0760 179.4549 205.4443 174.4305 194.0153 163.0433 164.9224 164.9830 152.5894 195.5779 195.3784 195.3293 172.3361 776.1429 159.2089 228.3082 211.4108 601.1467 1167.1292 291.3643 575.6082 887.3714 948.7287 382.7867 822.8062 814.5990 189.6392 320.5079 243.1998 174.1586 191.2159 295.6854 144.3991 205.7714 213.9690 240.2165 281.8159 265.2044 213.1589 225.2363 170.8542 166.4498 206.9067 182.7223 554.4081 196.4548 835.9635 884.4508 825.2916 725.1125 352.8347 499.5765
515.4528 669.3267 656.0011 276.7043 177.8431 371.3387 123.9364 171.8219 137.6991 149.9725 127.5970 146.8301 126.0224 127.9792 128.6060 119.6511 147.7536 142.5234 147.1251 132.3894 546.4185 115.7026 164.8094 146.8770 412.9900 781.5807 215.7620 392.6164 625.3143 667.6434 260.7583 595.3624 576.0687 144.3415 236.0601 174.5841 130.7784 144.4048 222.0598 102.0679 160.0965 164.2800 182.5251 214.9384 204.8509 163.0866 166.5759 128.5628 124.9078 148.0057 128.7130 374.6497 146.6178 562.8151 635.6675 549.5412 506.6056 241.5344 348.7642
338.4133 452.1611 424.0365 203.3527 135.8582 262.1195 95.2843 126.8822 105.0692 114.7727 92.4806 108.5873 95.6785 102.5922 108.0866 96.3728 115.5453 109.6254 111.3798 95.0561 395.8658 85.3218 118.4785 109.7384 297.4307 545.3726 158.3004 272.2555 424.1740 426.8888 175.6597 398.4237 395.9547 107.9688 164.5947 140.2912 101.2340 109.7855 157.8168 76.9972 117.1188 123.1968 147.6301 172.8991 158.2546 123.6360 128.6802 95.1682 97.2398 106.1170 100.5964 273.2716 105.3157 407.2816 419.8365 377.4593 357.9517 191.3901 237.4131
239.5910 322.6198 315.6578 151.3102 107.5702 203.3401 73.6755 97.4491 84.2497 87.1838 74.2357 92.2426 75.5350 89.3073 94.4015 81.7537 88.9579 86.9982 85.4075 77.4257 293.7768 67.4144 96.4970 82.9272 229.4204 392.6785 119.3424 201.9954 302.1847 306.8369 131.8411 292.5083 290.4395 87.7617 128.8735 110.8844 80.4834 86.5626 121.1918 66.6809 95.8563 98.6043 128.6060 152.5305 135.6443 101.4366 100.8240 75.2536 74.3165 84.5138 82.2387 197.8838 84.1287 287.4265 318.1504 278.3123 257.1024 150.7422 173.2151
176.2951 260.4996 234.9578 121.3728 84.2421 159.3848 59.6652 79.0077 67.5586 68.5029 59.0688 78.9918 65.6189 79.8508 83.5212 70.4551 75.4848 72.7154 70.7534 64.1920 228.0850 54.6048 77.4015 66.3544 175.9803 295.7557 91.8459 142.0347 232.8362 222.3415 95.3328 230.4408 223.4285 69.2096 99.6461 88.6899 63.1446 68.5963 98.8394 50.9427 85.4712 88.0368 114.5849 128.6197 114.9121 87.1782 85.8474 63.0333 61.6860 69.7318 65.2007 151.1432 67.0138 214.5291 250.1538 199.7889 183.6790 117.8408 133.8703
128.2011 213.4715 176.6092 95.8886 70.3520 132.8902 50.1161 65.9560 57.4920 58.1902 52.7634 67.0908 56.7957 71.9529 78.7602 65.0359 67.2580 64.2578 58.9352 52.3519 192.1276 44.1304 62.4837 58.3664 137.7101 226.0570 79.9563 115.0201 170.2885 166.6486 75.7952 187.2908 169.3375 57.3484 76.9607 76.8234 54.3329 59.0043 81.8401 45.7769 73.1126 77.4239 100.6810 123.9889 108.7951 75.1864 76.6871 54.8350 49.2926 55.1811 54.4254 117.7956 57.3178 174.1436 192.8072 158.0363 150.8596 100.9211 109.9416
104.1938 189.7686 147.6405 80.3225 58.1665 113.2339 43.5378 54.7548 51.4758 51.0775 46.9444 60.4432 50.6651 67.0526 73.0151 58.9509 60.2501 57.2908 53.4328 47.0231 175.7879 40.1141 55.7104 47.8778 126.6043 191.5688 66.8145 93.1554 138.9986 135.4598 63.5243 160.6142 141.0722 47.9226 64.5425 66.1881 46.8042 52.6395 70.8904 41.3670 65.8477 69.1143 94.9710 113.9425 97.5154 67.5779 68.7151 48.6638 46.4170 50.3340 49.1241 99.5469 50.2599 142.9953 171.9066 130.0205 121.3005 90.6155 95.7245
86.2031 165.9885 124.3218 67.9397 50.1056 102.2844 39.1038 49.1903 43.4727 45.8245 41.7402 55.3043 45.4412 62.7602 68.6630 55.1573 54.5981 51.8592 47.0088 41.1099 150.1808 34.5724 46.5952 41.1774 108.3804 162.1308 56.7198 80.8283 115.5281 111.5353 55.6756 141.5535 116.9774 42.3243 57.3867 61.8170 40.1942 45.0293 63.1975 37.6045 59.6665 63.8526 88.6293 106.9612 90.7238 60.7154 62.2854 43.4156 40.7438 40.8641 43.2326 86.7659 42.6498 118.6191 151.5652 112.9170 100.2978 81.4646 85.2581
74.4851 147.5872 103.7859 58.6150 44.7529 89.0020 34.0448 42.6865 38.8596 39.8585 38.2141 48.5406 39.4304 60.3652 67.4450 51.4498 51.0817 48.0552 41.8831 36.6946 135.5628 31.1558 39.8367 36.9946 98.0849 138.1302 50.6714 68.0474 99.2274 94.5239 47.8884 120.6362 99.4809 37.0737 51.4908 54.0238 35.5868 39.1573 56.4750 34.3991 51.5891 55.3268 83.4361 103.8350 85.8111 56.4146 58.5779 39.3718 36.1123 36.9594 40.6660 72.8790 39.1668 99.3316 137.6254 97.5482 84.9986 75.0885 77.2838
64.7543 129.7430 91.4064 51.3832 39.6126 78.6484 30.8470 36.9244 33.7865 36.6483 34.7755 45.1208 36.4918 56.5152 62.2836 47.8915 45.4719 41.9210 37.2630 33.8100 120.2332 26.8132 35.5909 32.1985 87.0390 124.2843 44.7322 61.5736 85.7043 84.8165 41.9902 108.5162 86.8568 32.9729 43.6422 49.6109 31.3912 35.1048 52.5037 31.0879 47.9392 52.6186 78.7091 96.6372 79.3913 51.0778 51.5747 35.7930 31.9119 32.5814 36.4845 65.7523 33.8580 91.0916 119.8303 87.7502 77.6163 67.8330 68.7986
57.3846 122.3427 82.6743 46.2838 35.9997 73.7618 28.8437 33.0074 31.4238 33.1491 33.2686 41.9496 32.2001 54.5634 61.8102 46.1036 42.5723 40.0489 33.8748 31.4728 111.4779 24.4460 31.4093 29.6564 77.1025 105.1547 39.6742 54.4004 76.4503 74.7716 37.2555 101.8533 78.6518 29.6033 40.3226 43.2603 28.9937 33.0780 48.1035 29.2254 44.1113 47.8051 74.4523 94.6376 75.7273 49.0551 49.5819 32.8787 29.0918 29.7926 32.6327 56.6643 30.0242 79.7580 105.4691 74.1339 68.3218 59.7074 59.8223
49.9323 110.9022 71.2490 39.6133 31.0857 66.4559 25.0918 29.1614 28.5689 31.0565 31.2530 39.6085 31.2974 51.8697 60.5621 42.4818 39.8561 36.3418 30.1782 30.2195 101.6557 22.8308 28.2299 25.9559 73.2668 93.6859 35.6094 48.9154 65.9716 64.8799 32.7326 92.2201 65.6948 26.5451 35.4648 40.1256 25.5077 29.8086 45.4706 27.3533 42.4980 44.3746 71.0720 91.4701 70.1394 44.9093 45.3843 31.4922 26.9933 26.4032 30.7361 51.5574 27.0329 69.3601 98.0231 66.1415 60.3866 55.3713 54.1131
43.4257 97.6299 64.8647 35.9632 28.2667 57.8881 23.6617 26.0747 25.8551 28.4866 29.5791 37.4991 30.2149 50.4102 60.4510 42.2886 38.0971 35.7102 28.2271 27.4146 88.7659 20.8399 24.2915 22.7870 64.6839 84.3763 30.1252 40.3288 58.2178 57.0368 28.3137 81.0217 60.9492 23.7045 31.6142 37.4210 22.0474 27.4051 41.3006 26.0957 40.9275 42.4770 69.0703 91.1247 68.7272 44.5384 44.5101 28.8699 25.3088 24.2281 28.1356 45.9884 22.7111 60.3023 88.3674 58.0801 49.7167 50.4959 49.0572
37.1419 88.4300 55.8644 30.4018 24.9996 52.9656 21.9406 22.7774 23.6639 25.7065 28.0765 34.3626 27.6582 48.7885 59.3516 40.2658 36.0895 35.0052 25.0708 24.4568 81.9312 18.6088 22.2532 20.6326 58.1462 72.7983 27.1248 36.4808 48.1975 48.5738 25.5615 72.4775 51.2895 20.5062 28.4399 32.9517 20.8717 25.4298 36.6119 24.4589 37.1358 39.0874 65.2745 87.6977 64.6446 43.7124 42.9701 27.1698 22.7717 21.1488 25.0718 40.8769 20.7683 52.6168 78.9431 50.3273 44.7066 44.6299 42.5744
34.2670 79.1006 51.9614 28.0588 22.9841 49.9808 19.1650 21.5317 22.1935 23.4452 28.2875 33.1319 26.6461 46.9166 60.2121 40.0319 35.7002 31.3300 23.3574 22.7976 73.4881 17.4083 20.8292 18.9087 52.8849 66.2817 24.9336 32.9715 44.9170 44.5387 22.9049 65.9476 47.6818 19.2923 26.6676 30.0173 18.7366 23.2904 34.2150 23.8823 36.2679 37.3568 63.2190 92.6651 67.0015 40.5229 41.1642 27.0845 21.0107 20.1751 23.5007 37.5459 19.5106 47.0786 71.7109 45.3511 39.8575 41.2115 37.7463
29.4438 73.7244 46.4930 25.0006 21.3483 45.8838 17.6413 18.8890 20.4116 21.1097 26.3144 31.3375 25.2072 45.0506 57.5553 37.8485 33.3895 30.8982 21.7217 20.4970 69.9657 15.6229 18.6852 17.3951 49.8073 59.7745 22.7413 30.5662 38.6246 39.3901 21.5395 60.3778 42.8390 17.5963 24.2525 27.3850 16.8973 21.7088 30.2217 22.0148 34.5115 35.2129 60.5865 87.3413 61.7663 39.7322 39.1224 25.4406 19.5103 18.2725 20.2484 34.1522 18.2557 42.8592 65.8243 41.6854 36.2047 36.6050 35.6703
27.8527 65.1400 42.6399 22.9726 19.2302 42.1238 16.4831 17.9189 19.5477 20.0969 25.7434 29.7113 24.6719 45.1065 57.3780 36.6753 32.9936 31.8895 20.7527 18.3842 62.6163 14.5285 17.7314 16.2725 44.9511 55.4252 21.4077 27.2179 35.7954 35.9247 19.7516 54.1452 38.9744 16.4979 22.3558 25.0755 15.6512 20.8318 28.0056 22.0186 33.2107 34.2235 59.3124 88.3956 61.0442 40.1502 40.0582 23.6782 18.0637 16.8980 19.0465 31.2956 17.2035 40.2178 59.0613 37.7881 32.9913 33.2887 30.4705
25.8581 61.4262 37.9926 21.2822 17.7289 39.6815 14.9320 16.5485 18.5465 18.3823 25.0415 28.5402 23.0379 42.5467 53.7173 33.5913 31.8490 29.8467 19.6879 16.5711 58.0108 13.4785 16.8060 14.8369 41.1154 51.3918 19.0381 26.4308 32.0507 32.5107 19.2427 51.7454 34.7476 15.2158 20.0554 23.2008 14.4401 18.9961 25.7080 21.0048 31.9104 32.4206 56.9099 83.5227 56.3723 37.4520 38.5079 23.2783 17.3134 15.6396 17.0893 28.7878 16.0712 36.6412 54.8167 35.7661 30.7505 30.6270 29.2999
23.4581 57.0161 35.3241 19.4722 17.2808 36.1441 14.2211 16.5758 18.7945 16.9781 23.5391 28.3018 23.4785 40.8974 53.2719 32.3494 30.1923 28.2845 18.0040 16.0006 53.2552 13.5860 15.3139 14.0611 38.0236 46.3089 18.1155 24.2199 28.8310 29.7011 18.2513 47.8937 32.4525 14.9312 19.3732 20.8066 13.9426 18.7784 23.8231 20.3756 32.1720 31.3158 54.7175 81.0016 53.0292 36.3517 36.8445 21.3288 16.5613 14.7690 16.0039 26.4336 14.8608 33.6558 50.5574 32.5189 28.3676 27.5028 27.3469
21.7857 53.2600 35.8529 17.9645 16.0109 34.6548 13.8193 15.6752 17.7652 16.2269 22.4575 27.1428 22.2657 39.8945 52.1641 32.1202 28.6218 27.6150 17.5057 15.2946 49.3991 12.5594 14.7829 13.2207 35.6388 43.9790 16.7705 23.8361 27.2173 28.6026 17.0426 46.6197 30.9728 13.5484 19.6238 19.8802 13.3977 17.9182 22.9654 19.3781 30.5889 30.2870 52.9270 78.9880 52.1618 34.8413 34.7341 20.8030 15.8027 13.9713 15.3743 25.1564 14.3775 31.7208 47.2239 31.4946 27.0735 26.4938 25.6372
21.1837 51.4548 33.1382 17.0045 15.5483 33.5562 13.1643 14.4024 16.9981 15.1955 20.4475 26.2036 22.2709 39.3956 51.9692 30.0739 27.8879 26.3400 17.6720 14.4701 47.8400 11.8383 14.0605 12.9631 34.7860 43.4252 16.6443 22.2819 25.3762 26.6865 17.2647 43.4375 29.5470 12.7218 19.1938 18.7002 12.3039 16.9728 21.7881 17.6688 30.4284 29.3334 51.0051 75.2452 48.1835 32.3822 34.2382 19.1026 15.3118 13.1046 14.1201 25.2010 13.6911 31.2502 46.5392 29.9647 25.5407 24.2999 24.3963
20.9112 51.1424 31.7685 15.9048 14.4392 32.2135 12.6875 13.9367 16.8476 14.8500 20.3270 25.5698 21.0111 37.4556 48.5530 29.0633 27.5261 25.5868 17.0060 13.4523 46.3645 11.6638 13.7339 11.9005 35.2475 42.3712 15.1538 21.6691 24.7304 26.4658 16.9757 42.7258 27.7380 11.8380 18.2841 17.9309 11.8274 16.9795 20.7220 17.8875 28.8789 28.0681 48.9668 71.3270 46.9528 32.3120 33.4882 18.8682 14.9414 12.8092 13.7661 24.4484 12.8991 29.1222 46.8808 29.6721 24.1762 23.3685 25.0171
19.1000 50.0048 32.1330 14.9828 13.9364 31.6163 12.2782 13.4917 16.4170 13.8733 18.9837 25.0751 19.8999 34.5587 43.2984 25.9618 25.7192 23.5256 16.4282 12.8163 44.5766 11.7789 13.3779 11.4369 33.6454 42.0180 14.5482 20.4214 22.4782 25.1253 15.7436 42.5516 26.9238 11.7297 18.9934 16.9749 11.0318 16.0644 19.6458 16.7260 28.0535 26.5869 45.0492 62.2955 42.2881 29.7279 30.8538 18.1169 14.4548 12.5078 13.1060 24.0061 12.2353 29.1577 45.4869 28.7349 23.9406 21.8564 24.0050
18.0242 51.6946 31.9175 14.0313 13.3086 32.2587 11.7766 12.8465 15.5911 14.2661 19.7296 25.0976 19.4000 33.4819 41.7214 25.5537 25.6608 22.8445 15.9842 12.6430 43.9041 11.1253 12.4013 10.7905 33.9541 42.4049 13.6231 20.2567 20.9507 24.4046 15.4994 44.7524 25.4138 10.8436 18.6236 16.5171 10.3757 15.9493 19.8463 17.8383 27.4248 26.3240 44.5589 61.5271 42.0751 28.8128 30.1760 18.5778 13.9579 11.5115 12.1149 24.5783 11.3685 27.4965 47.5550 29.5235 22.6449 20.8384 25.4047
16.5455 48.2420 31.7345 13.2524 12.5183 32.6366 11.3035 11.8452 14.9884 14.0981 18.8262 25.2585 18.1438 32.5447 39.7065 24.4832 25.6896 22.2279 15.3772 12.1128 41.2146 11.3414 11.4991 10.5279 32.7454 43.2675 12.7903 19.2469 19.2376 23.3163 15.0428 44.1051 23.9336 9.8923 18.6782 16.1710 9.6252 15.7287 19.0551 17.0380 27.2950 25.7979 43.2944 57.7056 40.7848 28.0226 29.9310 18.4046 13.7085 10.9923 11.9064 25.0473 10.9998 26.4639 45.9964 29.3288 20.9643 20.1426 24.2430
15.6748 44.6095 32.2763 12.3909 12.0578 30.6924 11.1545 10.7692 14.5703 13.3260 18.4321 24.2467 17.0644 29.3740 34.7537 22.0133 24.3498 20.1495 14.4025 11.6569 38.4654 10.9067 10.4746 9.9820 31.2816 42.1239 11.9342 17.7252 17.8365 23.5201 14.1579 42.4666 23.2614 8.9754 19.0202 15.2036 9.0745 15.1567 18.4010 16.7374 25.9136 23.9958 39.9819 51.9938 37.6703 25.7018 27.6461 17.9582 13.1351 10.1902 11.2905 24.1332 10.1026 25.7127 43.4347 27.8372 19.7400 19.0233 23.4304
14.7405 41.9986 30.7775 10.8041 10.9708 28.5522 10.3988 10.0460 13.6613 13.0761 18.2161 23.7632 15.6048 27.6371 31.0861 19.7629 23.3883 18.5663 13.2832 11.3550 35.6064 10.1918 9.8200 9.0337 29.7127 40.8463 10.6804 16.9292 15.8818 22.8448 13.0842 40.2584 20.8402 8.4514 17.8403 14.1643 8.6206 14.4975 17.8172 16.6478 24.6987 23.0525 38.4470 47.5805 34.4919 23.7590 26.0370 17.7306 12.2890 9.2526 10.5478 23.5040 9.1959 23.5054 42.2126 27.5550 18.2769 17.4871 22.7399
12.4656 38.4292 28.1254 9.9193 9.8883 25.7727 9.8991 9.1372 12.2948 12.2615 17.5653 22.3540 14.5233 25.4552 28.2779 18.1917 21.5053 16.9667 12.5954 10.6885 33.1855 9.7335 9.5528 8.6183 28.5795 39.1147 10.2748 15.3325 13.8844 19.9515 11.6575 36.3949 19.0157 7.7909 16.8544 12.9095 7.6700 13.4602 16.5955 16.2701 22.8568 21.6960 35.6341 43.6833 31.8315 21.2544 23.4351 16.7779 11.8946 8.8449 9.9946 22.9081 9.0065 22.6322 39.1178 25.5984 17.0038 16.4097 20.9283
11.9166 32.8943 26.3515 9.0822 9.0356 23.0883 9.3640 8.4301 11.3764 11.5194 15.9266 20.3757 13.0142 23.8300 25.8919 17.0821 20.2559 16.3266 11.7176 10.0551 29.1551 9.1901 8.6200 7.6368 25.8085 35.6358 9.1988 13.8999 12.8719 19.4661 10.7477 32.7774 17.5327 7.1911 15.0872 12.0745 7.3190 12.5928 15.2051 14.9234 20.7515 19.9193 33.2662 40.1361 29.9626 20.6454 22.4416 15.6650 10.8840 8.2009 9.2978 20.8736 8.0811 20.3951 34.6752 23.5545 15.4015 14.7151 18.8492
10.3475 29.0260 23.1819 8.1999 8.3678 20.3887 8.3983 7.6992 10.4459 10.4321 14.5815 18.8889 11.9126 21.9189 23.7692 15.8597 17.6969 13.8263 10.3985 8.9769 26.8261 8.4036 7.8102 6.9806 23.0074 30.8547 8.1369 12.5004 11.2635 17.2426 9.4006 28.4888 15.7509 6.4357 13.3022 11.1544 6.7321 11.4964 13.7260 13.7481 19.2429 18.3826 30.9136 37.1522 27.2867 17.8216 19.0605 14.1025 9.7442 7.5439 8.6870 18.3225 7.2793 17.8251 30.1667 20.8148 13.5483 13.7565 16.5135
9.7167 25.6143 21.1269 7.6353 7.5937 18.1925 7.4107 6.8926 8.9836 9.3720 13.4950 16.7510 10.5977 20.0136 21.6471 14.5721 16.5642 13.1016 9.8851 8.2837 24.0102 7.7145 7.4691 6.3448 20.7084 28.2219 7.3817 11.4302 10.5344 15.9217 8.7364 25.2915 14.5798 5.7591 12.0094 10.0201 5.9017 10.0402 12.4050 12.4586 17.1239 16.6993 27.9246 34.6178 25.6096 17.1610 18.2585 12.9566 9.1718 7.3120 7.7113 16.4348 6.6648 16.3582 27.0782 19.0339 12.4406 12.2063 14.9707
8.6197 22.9093 18.9110 7.0226 6.8789 16.4841 6.8943 6.4678 8.3166 8.4568 11.9966 15.4852 9.4753 18.4478 19.6870 13.4080 15.1458 11.9563 9.0132 7.5682 21.6363 7.0708 6.6657 5.7956 18.7826 24.0754 6.9373 9.9755 9.6403 14.4057 7.7625 22.7268 13.3088 5.3220 10.5806 9.1966 5.5170 9.2809 11.0367 11.1739 15.5783 15.3485 25.5727 31.0574 23.4230 15.6491 16.5489 11.9191 8.4747 6.4263 7.1050 14.7910 6.1250 14.1753 23.8906 16.1859 10.7545 10.8541 13.2997
7.8997 20.1801 16.5682 6.3605 6.4360 15.1162 6.6693 5.9229 7.6299 8.1172 11.2507 14.1849 9.2400 16.7885 17.2648 11.9884 13.7140 10.6886 8.2374 7.2236 19.7303 6.6217 6.3840 5.4166 16.9468 22.2264 6.5164 9.1294 8.4980 12.7736 7.1039 19.8896 11.9413 4.9086 9.7484 8.9471 5.1982 8.6609 10.4598 10.4142 14.7327 14.9001 23.4316 27.3616 20.8725 14.0650 14.7597 10.9572 7.9723 6.0555 6.8105 13.3582 5.5862 13.4596 21.2488 14.8981 10.0108 10.3805 11.9115
7.5411 18.2718 15.0540 6.0673 6.1065 13.8356 6.0827 5.6988 6.9242 7.2883 10.0604 12.6368 8.2560 15.2634 16.3317 11.5333 12.8584 10.4733 7.5988 6.5902 18.2598 6.2014 5.9429 4.8840 16.1930 21.0757 6.1895 8.6454 8.0095 11.8540 6.8687 18.1056 11.0608 4.5932 8.6388 8.4897 5.0383 7.8539 9.3339 9.2504 12.9334 13.2791 21.3395 26.0293 19.9712 13.6936 14.0322 10.1105 7.4314 5.5532 6.5335 12.6694 5.2768 12.5415 20.1258 13.9781 9.4246 10.0534 11.0486
6.9217 16.9209 13.8745 5.8292 5.7465 13.2354 5.8843 5.4197 6.3501 7.0329 9.5508 12.2686 7.7571 13.9810 14.8365 10.5542 11.9547 9.8102 7.2436 6.3013 17.2411 5.8812 5.9131 4.8145 14.8437 19.0949 5.8826 8.4588 7.5428 10.7632 6.6065 16.9182 10.3949 4.4751 8.1453 8.2686 4.7553 7.4222 8.9887 9.0683 12.2471 12.3725 19.8197 23.5927 18.0907 12.6651 13.1332 9.2532 6.9148 5.5151 6.3182 11.5774 5.2726 11.6491 18.0852 13.0499 8.8136 9.7809 10.2323
6.7397 16.7426 13.1268 5.6529 5.4117 12.1133 5.5322 5.0738 5.9533 6.1404 8.4426 11.2177 7.1699 13.4627 14.1234 10.1675 11.0891 9.0879 7.0287 5.8367 16.3161 5.6399 5.5105 4.6940 14.2070 18.2995 5.6168 8.1708 7.3203 10.5720 6.5873 16.2431 10.0023 4.2288 7.5528 7.5197 4.4605 6.7384 7.8465 8.1748 11.1543 11.5164 18.8671 21.9501 17.0813 11.9384 12.1827 8.4220 6.7243 5.3466 5.9923 10.9360 4.8640 11.3013 17.7424 12.6773 8.5095 8.9111 10.3577
6.5789 15.9339 12.8645 5.4160 5.2445 12.0091 5.4343 4.8665 5.6405 6.0363 8.0210 10.4953 6.7664 12.3551 12.9030 9.5331 10.2018 8.2693 6.2877 5.8004 15.5424 5.3159 5.2555 4.3990 13.2074 17.1877 5.5388 7.8134 6.8892 10.3737 6.4901 15.9325 9.4809 4.0570 7.4888 7.7390 4.3726 6.4560 7.8565 7.6015 10.6018 11.0178 17.4060 20.5476 16.0702 11.1392 11.0960 8.0120 6.2521 4.9359 5.8670 10.2190 4.6565 10.8394 16.6144 12.1129 8.0576 9.0020 10.2053
6.2641 15.4362 12.2302 5.2698 5.2261 11.7745 5.2559 4.8832 5.4356 5.7857 7.5964 9.7976 6.4224 11.2910 11.9342 8.9277 9.6858 7.9334 5.9392 5.4365 15.0129 5.1483 5.3234 4.3884 12.7086 16.9951 5.1946 7.7149 6.6637 9.5559 6.3848 15.0749 9.3211 4.0381 7.3509 7.1455 4.3267 6.3117 7.2690 7.2800 9.7599 10.0681 16.1307 19.6101 15.4339 10.5335 10.4950 7.6050 5.8547 4.7212 5.6234 10.2137 4.5836 10.5320 16.3456 12.0379 7.6886 8.1905 9.8254
6.4710 15.5973 12.3888 5.3093 5.1373 11.2616 4.9896 4.7769 5.1065 5.5575 7.3168 9.5320 6.1489 10.5542 11.2531 8.4782 9.1050 7.7146 5.7737 5.2411 14.9267 4.7725 5.0045 4.2269 12.7368 17.0153 5.2488 8.0412 6.7357 10.1400 6.8135 15.2735 9.4176 3.9217 7.0031 6.8563 4.1510 6.1076 6.8513 6.9519 9.4523 9.5934 15.0345 18.2453 14.5440 10.1528 10.0206 7.2402 5.6650 4.5828 5.3635 9.6879 4.5535 10.2620 16.7937 12.4834 7.7140 8.0281 10.4898
6.7894 16.1102 12.7342 5.2456 5.0309 12.1899 4.8129 4.7060 4.9212 5.0554 6.8283 8.7407 5.6933 10.0453 10.4248 7.8364 8.6813 7.2374 5.6122 4.8715 15.1941 4.7553 5.0054 4.2646 12.3979 17.2549 5.1715 8.3874 6.6401 10.7406 7.3400 16.3791 9.1739 3.9356 7.3050 6.8192 4.0122 5.6337 6.3649 6.4085 8.7179 9.0895 14.2030 17.1556 13.5930 9.6244 9.3661 6.9764 5.4072 4.6371 5.3855 9.8152 4.3285 10.6091 16.6425 12.9638 7.9483 8.1548 11.2745
6.9301 16.6755 12.8414 5.0942 4.8947 12.0889 4.5245 4.4992 4.5413 4.8651 6.4999 8.6244 5.3994 9.5938 9.6614 7.2073 8.3597 6.9450 5.2420 4.8229 15.4149 4.6194 4.7861 4.2815 12.7264 17.9803 5.2264 8.9185 6.6259 10.9237 8.0304 16.7602 9.2059 3.5961 6.9526 6.7665 3.7721 5.3741 6.1460 6.3988 8.3319 8.6881 13.6914 15.3966 12.3783 9.1391 9.0147 6.5613 5.3254 4.3540 5.3732 9.9440 4.2979 10.8582 17.5366 13.6365 7.9709 8.0730 12.0601
7.3679 17.3066 13.6770 5.2835 5.0627 11.9330 4.4877 4.4555 4.5327 4.9185 6.2933 8.3556 5.2615 8.8876 8.9754 7.2455 8.0315 6.8674 5.2710 4.5926 15.5366 4.5843 4.8213 4.1981 12.8049 17.7961 5.3796 9.2962 6.8622 11.9090 8.6679 17.3089 9.7718 3.7059 7.0859 6.9049 3.8455 5.2799 6.0928 6.2931 8.0808 8.3405 12.9023 14.7632 12.5172 9.1211 8.8168 6.1111 5.1320 4.3876 5.5690 9.6176 4.1591 11.0945 17.8724 13.9329 8.1781 8.3484 12.8451
7.7370 18.8594 14.4096 5.6230 5.1763 12.8505 4.3883 4.3357 4.1103 4.6632 6.1499 7.8109 5.2028 8.3017 8.3437 6.6307 7.4574 6.5263 5.0188 4.4226 16.7673 4.3607 4.7170 4.2902 13.5852 19.2762 5.3890 10.2803 7.1335 12.6666 9.5428 18.9304 10.2093 3.7628 7.3730 7.1087 3.5729 4.8876 5.7258 6.1135 7.5966 7.9812 12.2421 13.9796 11.4708 8.4377 8.0790 5.9519 4.8710 4.2520 5.6409 9.8561 4.1889 11.5334 19.6234 15.7603 8.6217 8.7173 14.5092
8.6303 19.7594 15.9650 5.9631 5.4468 13.4733 4.5042 4.0488 4.0837 4.5885 5.7284 7.7505 4.9495 7.6056 7.8945 6.2956 7.5188 6.3215 4.8882 4.4125 16.7136 4.3428 4.3773 4.5688 13.8163 20.3819 5.7689 11.1931 7.6189 14.5750 10.8997 20.7972 11.0199 3.6226 7.7388 7.2871 3.4929 4.9877 5.5569 5.8984 7.3599 7.2305 11.1953 12.8736 10.9027 7.9442 8.1581 5.7446 4.8314 3.9655 5.7906 10.2344 4.1530 12.2630 20.5595 16.8949 9.0198 8.7103 16.1762
10.0114 21.1382 18.1641 6.6283 5.8779 14.2530 4.3967 4.2085 4.0223 4.4786 5.7679 7.5796 4.7550 7.1442 7.3667 5.8326 6.8935 5.8815 4.3758 4.2745 17.5018 4.2671 4.3216 4.8730 14.5781 23.3733 6.3262 12.9005 8.7509 17.1433 12.6566 22.6121 12.6982 3.7815 8.1666 7.5072 3.4932 4.8133 5.4030 5.9652 7.1245 6.9785 10.8374 12.5382 10.2746 7.4703 7.4065 5.5788 4.4788 3.8270 5.8231 11.1225 4.1490 14.0901 22.7736 19.7569 10.2790 8.9364 18.4525
12.0648 22.8856 21.7900 7.4276 6.5284 14.5551 4.3698 4.1443 3.8336 4.4007 5.6162 7.2282 4.6389 6.7824 7.0309 5.4208 6.7336 5.8563 4.5036 4.2150 17.8180 4.3540 4.7106 5.4552 15.3383 26.5574 7.0138 14.2176 10.1883 21.2237 14.4973 25.8332 14.9837 3.8476 8.9388 7.1920 3.4957 4.5530 5.4316 5.7607 6.7572 6.6903 10.3372 11.7968 9.6383 7.2943 7.4109 5.3191 4.5029 4.0265 6.0841 12.1825 4.4908 16.2263 24.9357 22.6507 11.2261 9.0071 21.3805
13.2448 24.6265 25.1043 8.7827 7.5110 15.4506 4.2540 4.0110 3.8293 4.0814 5.2594 6.9277 4.4398 6.3781 6.5836 5.2116 6.5227 5.5783 4.5482 4.0721 18.7336 4.1262 4.4371 6.0940 16.6872 30.0660 8.2197 16.1128 11.4599 23.9127 16.3158 28.7208 17.8654 4.1106 9.9392 7.1930 3.3599 4.4595 5.1235 5.3626 6.5776 6.2995 9.7269 11.0282 9.2457 7.0531 6.9611 5.1858 4.4776 3.9597 6.1670 13.4813 4.3586 18.9402 27.3846 25.6156 13.0627 9.2567 23.5877
15.8477 24.7890 30.3735 10.4138 8.8379 15.9487 4.2947 3.8608 3.8507 4.1313 5.0794 6.9398 4.2381 6.1330 6.2309 5.0195 6.4129 5.3237 4.3268 3.9503 18.7899 4.2249 4.0395 7.1943 17.3015 34.7231 9.6797 18.7302 13.9877 28.9096 18.3618 31.1609 22.3615 4.3663 11.5570 7.1636 3.3653 4.6061 4.9822 5.4174 6.3251 6.0300 9.4237 10.3009 8.8991 6.6941 6.8309 5.0278 4.2578 3.7679 6.3000 15.0023 4.2161 23.3709 28.6915 29.4949 15.9039 9.3711 25.2045
17.8505 25.7999 35.8874 12.1999 10.5789 16.9477 4.4379 3.6797 3.6564 4.1340 4.6692 6.5615 4.1235 5.9052 5.8921 4.8353 5.9735 5.4520 4.3537 3.8873 18.2463 4.1376 4.0584 8.2022 17.7907 40.4066 11.1377 20.6832 16.3614 32.8695 19.6577 34.4869 27.1754 4.7423 13.7957 7.2533 3.3273 4.3794 4.9681 5.0122 6.0968 5.8989 9.0112 9.8848 8.5121 6.6931 6.7018 4.5945 4.1418 3.7013 6.1311 17.1875 4.1131 28.1397 30.8261 33.4195 18.9086 9.1017 26.6771
18.7205 25.1742 39.5197 13.4925 11.7267 17.3651 4.2918 3.6826 3.5705 3.9197 4.6336 6.2460 3.8537 5.4980 5.7994 4.7476 5.9208 5.0891 4.2486 3.7051 18.0933 4.0638 4.0647 8.7933 19.0147 43.8004 12.3278 20.6881 18.0747 34.5394 19.0446 35.1071 30.8491 5.0617 15.3911 6.8145 3.2146 4.2634 4.7565 4.8003 5.7775 5.5169 8.3297 9.4365 8.4058 6.2913 6.3616 4.5988 4.1480 3.6281 5.8466 19.0501 4.0400 31.5356 31.5351 34.1784 20.9625 8.4388 25.7570
18.5335 24.3808 42.6032 14.3703 12.4100 18.4917 4.4172 3.6102 3.5484 4.0374 4.5930 6.2096 3.7628 5.2199 5.1705 4.3037 5.7050 4.8506 4.3387 3.7798 17.8374 4.1482 3.7550 9.0424 19.6767 43.8921 12.6330 20.5583 19.2344 35.0064 18.2067 36.3729 33.3972 5.0868 16.9596 7.1538 3.1525 4.3215 4.7281 4.8655 5.6390 5.3485 8.2028 8.8762 7.8144 5.8173 6.0740 4.5404 4.2587 3.5816 5.9607 20.1777 3.6651 32.2823 30.7766 33.2660 21.7371 8.5413 24.4684
17.4229 23.6995 42.4982 13.9232 12.0179 19.5769 4.2268 3.4265 3.6626 3.9425 4.3807 6.2101 3.6995 5.1454 5.1289 4.1045 5.5863 4.6542 4.1543 3.6683 18.2478 4.1344 3.6087 8.8701 20.1505 42.1433 12.1347 18.8393 18.9141 33.1191 16.1784 36.0821 33.0438 4.8488 17.4291 7.1265 3.0778 4.2864 4.7397 4.6711 5.7062 5.2385 8.0197 8.5115 7.4523 5.4828 5.8681 4.4400 4.0882 3.5357 6.0099 20.4076 3.5680 30.9518 29.4894 30.6897 20.7748 8.6116 22.0976
14.8292 21.9976 39.3585 12.6083 11.0079 19.9588 4.3347 3.3967 3.6628 4.2217 4.6249 6.0966 3.5323 5.0079 4.9146 3.9112 5.5483 4.4655 4.1645 3.9630 17.9456 4.0335 3.4204 8.3155 20.7865 41.3577 10.9730 16.6546 17.1292 28.8233 13.2576 33.7988 29.9987 4.5370 16.9306 7.4425 3.1779 4.3752 5.1799 4.7202 5.4744 4.9464 7.9681 8.4870 7.3182 5.1368 5.6183 4.7145 4.1170 3.4682 6.1360 21.0421 3.3006 28.8766 29.0530 28.0475 19.2618 8.8882 18.9561
13.6757 21.8558 38.0163 10.9104 9.7200 21.7624 4.4358 3.3562 3.7162 4.7321 4.9711 6.1740 3.6269 4.7850 4.7515 3.8094 5.6511 4.3845 4.1397 4.2136 18.6798 4.1401 3.5129 7.2025 22.4019 38.5535 9.0689 14.3710 15.4622 27.1886 11.3683 34.5591 26.7860 4.1152 16.8290 8.2415 3.0986 4.4891 5.7537 4.9810 5.5230 4.8750 7.6605 8.4275 7.3139 4.9009 5.4877 5.0285 4.2070 3.4837 6.5845 21.0589 3.2130 24.7464 28.5940 24.7533 16.5051 9.5134 17.4473
12.4307 22.4920 35.1661 8.8939 8.2298 24.4662 4.7941 3.3687 3.9073 5.6261 5.9952 6.7079 3.5842 4.7295 4.5147 3.6127 5.8952 4.4154 4.2890 4.8052 20.9039 4.5782 3.6697 6.5731 25.8377 38.3468 7.6195 13.0248 13.2448 24.8533 10.3393 35.3373 22.3620 3.6872 16.1932 9.8668 3.0315 4.9254 6.7300 6.0245 5.5330 4.5888 8.2480 9.0800 7.3232 4.7859 5.4861 5.8142 4.4341 3.5153 7.6452 23.3423 3.1146 21.7831 29.8697 22.9758 14.2491 11.2588 16.8673
11.0635 22.0974 31.9492 7.3477 7.1609 26.5507 5.3716 3.6292 4.2161 7.8795 9.0364 7.9270 4.0957 5.0598 4.7135 3.6791 6.7456 4.6887 4.5349 6.2301 22.8729 4.8867 3.7511 6.0438 28.7306 36.8776 6.5446 11.7601 11.3180 22.5754 9.3061 34.9428 18.5620 3.4557 15.3951 12.6478 3.1896 5.5407 9.4760 8.4258 6.1085 4.7887 9.6007 11.1747 8.3280 4.7421 5.7392 8.1831 4.8224 3.7034 9.7428 23.8655 3.3044 18.9259 30.2134 21.3905 12.5018 14.6762 16.2618
10.2337 21.7359 28.1068 6.2872 6.8406 28.6836 6.7338 4.0359 4.7018 12.8648 13.9815 9.2474 4.9676 5.2356 4.8509 3.6724 8.1527 5.1553 4.8966 9.5445 25.2511 5.9312 4.1772 5.9630 32.0027 34.6786 5.9293 10.7630 9.8261 20.2012 8.7026 33.8997 15.3304 3.3759 14.8770 17.9506 3.6510 6.8247 15.7983 12.2205 6.5376 4.8587 10.7445 13.1215 9.1763 4.7242 6.0538 11.9657 5.6894 4.0364 13.8980 24.6933 3.9410 16.2394 29.8035 19.7185 10.8168 21.5031 15.8854
8.3780 19.3173 21.9827 5.7981 6.6827 27.1791 7.8845 4.1123 4.9373 18.0614 18.4335 10.2885 5.5695 5.2308 4.9021 3.5356 9.2236 5.5201 4.9433 14.2218 26.6140 6.6809 4.4462 5.9136 32.5061 29.4213 5.4239 9.6067 8.3568 16.3231 7.6702 28.1645 12.7904 3.3501 12.4687 22.8656 3.6589 8.2234 23.0057 15.1358 6.8668 4.7509 11.3695 14.5886 9.7414 4.6246 5.8857 16.0631 6.6697 4.4146 18.3707 22.3839 4.5995 13.0720 27.0087 16.9450 8.9820 28.8956 14.1406
6.8377 15.5583 17.2339 4.9772 6.2296 21.8753 7.9330 3.9652 4.8155 20.3169 19.0545 9.4686 5.4015 4.7566 4.5404 3.3166 9.0883 5.4946 4.7927 17.2843 23.6465 6.9549 4.3540 5.6816 28.2716 23.6207 4.9986 7.6309 6.8171 12.7760 6.1942 21.8161 10.8374 3.1421 9.7967 23.9718 3.5448 8.5628 26.6099 14.7982 6.2962 4.3068 10.1156 13.5637 9.0207 4.5446 5.5153 16.9444 7.2850 4.3737 20.6921 18.2290 4.5716 10.9613 22.0815 13.6919 7.3093 31.8485 11.4115
5.1586 11.9299 13.2404 4.2231 5.4018 16.2129 7.3499 3.4604 4.3658 17.7866 15.8133 8.0846 4.7152 4.2608 4.0716 3.1416 8.5538 4.8892 4.2648 17.2987 18.3549 6.0859 3.7714 4.8351 20.9897 18.0882 4.3786 5.8406 5.4780 9.3377 4.6495 16.2825 9.0036 2.8111 7.7026 20.9220 3.1312 7.8603 24.2287 11.6802 5.7806 4.1206 8.6806 11.1824 8.0775 4.1859 5.0014 15.2661 7.3746 3.7370 18.5788 13.5693 3.9159 9.2887 16.4032 10.2429 5.9192 28.1333 8.3276
3.8907 8.7998 10.0572 3.6544 4.5221 11.3225 6.4551 2.9281 3.8217 14.0472 11.6486 6.7989 3.9771 3.7566 3.6949 3.0390 7.5537 4.1340 3.7280 14.9092 13.4720 5.1726 3.0850 4.1762 14.8704 14.1075 3.5984 4.6372 4.4270 6.8757 3.5629 11.4886 7.5172 2.4383 6.0385 16.4578 2.7433 6.8009 19.1332 8.7708 5.1847 3.7750 7.2507 8.9031 7.2568 3.9433 4.6146 11.9900 6.8832 3.1813 15.0211 10.3577 3.0733 7.8993 12.2467 7.9236 4.7759 22.0497 6.1086
2.9846 6.7621 7.7318 2.9091 3.5502 8.3429 5.2520 2.4947 3.2339 10.0533 8.1104 5.3559 3.1616 3.2229 3.1979 2.7011 6.1227 3.4333 3.2760 11.5411 9.8265 4.2671 2.5694 3.4997 10.3096 10.7868 2.9189 3.5153 3.3891 5.1204 2.6926 8.6822 5.8244 2.0472 4.8575 12.2593 2.3359 5.4730 14.1354 6.0841 4.3526 3.2948 5.7817 6.8656 5.9925 3.4813 4.0936 8.7592 5.8141 2.8051 11.3263 7.7649 2.4876 6.4404 8.9622 5.9141 3.7552 16.2828 4.5061
2.5151 5.4898 6.4470 2.4796 2.9120 6.5546 4.4346 2.1135 2.5831 6.9874 5.3490 4.4250 2.5170 3.0475 3.0279 2.4882 4.8954 2.9924 2.9795 8.3460 7.5225 3.5380 2.2186 2.8253 7.7575 8.7589 2.4833 2.8030 2.8940 4.2866 2.1921 6.9085 4.9455 1.7032 4.1487 9.4063 1.9638 4.2329 9.7228 4.2992 3.6712 2.9706 5.2328 5.7352 5.0585 3.0648 3.6044 6.0666 4.8077 2.4148 8.0890 6.2445 2.0340 5.4245 7.1822 4.5811 3.1194 11.6466 3.4770
2.1077 4.5659 5.4047 2.1294 2.4648 5.4605 3.8277 1.8346 2.3403 5.1175 3.7549 3.7050 2.2213 2.6979 2.6936 2.2565 4.1230 2.5107 2.6165 6.0420 6.1940 3.0003 1.8726 2.4105 6.0791 7.0409 2.1606 2.3659 2.4349 3.5023 1.7723 5.6908 4.1578 1.5016 3.6241 7.2652 1.8224 3.4630 6.9573 3.2351 3.2594 2.7183 4.4584 4.6626 4.3876 2.8186 3.3963 4.3065 3.8968 2.1223 5.9241 5.0705 1.6505 4.6171 5.7291 3.8128 2.7418 8.3980 2.7504
1.8878 4.0789 4.5083 1.9002 2.1556 4.7432 3.2779 1.7297 2.0415 3.9190 2.9576 3.2323 1.8360 2.3828 2.4237 2.0947 3.6199 2.4281 2.3551 4.5841 5.1855 2.5986 1.7382 2.1568 5.1098 6.0801 1.9744 2.0905 2.1809 2.9849 1.5731 4.9829 3.5317 1.4058 3.1907 5.7523 1.6795 2.9780 5.2107 2.6422 2.8295 2.4153 3.9153 4.2382 4.0652 2.6092 3.1503 3.4663 3.2390 1.9292 4.6533 4.3885 1.6008 4.1012 4.9080 3.3184 2.4200 6.4197 2.4442
1.7206 3.4638 3.9887 1.7102 1.9918 4.0127 2.7404 1.5426 1.7809 3.1473 2.3680 2.7668 1.7331 2.2383 2.3247 1.9218 3.0476 2.2069 2.1100 3.5127 4.4331 2.3316 1.5512 1.8215 4.4377 5.1551 1.7411 1.8574 1.9578 2.6771 1.3782 4.2558 3.1564 1.2913 2.8101 4.5669 1.5125 2.5370 4.0499 2.2422 2.5053 2.2336 3.5001 3.6761 3.4934 2.3933 2.8249 2.6841 2.7704 1.6958 3.7565 3.7755 1.3728 3.5130 4.2234 2.8455 2.1428 4.9491 2.0656
1.5458 3.0796 3.4470 1.6116 1.7703 3.6110 2.4215 1.4801 1.6539 2.4289 1.9117 2.6355 1.5823 2.1585 2.1567 1.7945 2.7167 2.0598 1.9471 2.8418 3.9166 2.0208 1.4586 1.6520 3.7772 4.4841 1.6506 1.6546 1.7818 2.3685 1.2406 3.8359 2.7846 1.1901 2.5181 3.7594 1.4166 2.1864 3.0727 1.9436 2.4113 2.1734 3.3757 3.3863 3.2412 2.2287 2.5842 2.2690 2.4034 1.5149 3.0704 3.3302 1.2658 3.2318 3.5148 2.4997 1.9519 3.9601 1.8134
1.4633 2.8404 3.0554 1.4523 1.6777 3.2737 2.1988 1.3434 1.5186 2.1165 1.6863 2.4355 1.5097 1.9777 2.0252 1.7118 2.5330 1.9253 1.7948 2.4219 3.6599 1.9287 1.4267 1.4881 3.4812 3.8269 1.5282 1.5617 1.6452 2.1460 1.1740 3.4044 2.5217 1.0955 2.3549 3.3439 1.3333 1.9763 2.6516 1.7570 2.2664 2.0263 3.0519 2.9966 3.0656 2.1197 2.3913 2.0572 2.1587 1.5053 2.6483 2.8875 1.2347 2.7986 3.1757 2.2431 1.8372 3.4480 1.6601
1.3626 2.6113 2.9018 1.3731 1.5521 2.8822 2.0220 1.2677 1.4305 1.8279 1.4629 2.2386 1.3587 1.9161 1.9791 1.6421 2.2681 1.8228 1.6368 2.0415 3.2770 1.7028 1.2968 1.4637 3.1782 3.4889 1.4428 1.3699 1.5580 2.0286 1.0573 3.1325 2.4123 1.0579 2.1528 2.8262 1.2457 1.8472 2.2480 1.5403 2.0760 1.8708 2.8640 2.7500 2.8005 1.9922 2.2516 1.7775 1.9043 1.3938 2.1972 2.6956 1.2273 2.6093 2.9059 1.9774 1.6571 2.8474 1.5147
1.3001 2.5108 2.6917 1.3221 1.4832 2.6904 1.7528 1.2700 1.3714 1.7182 1.3726 2.2117 1.2743 1.8345 1.9062 1.5417 2.1118 1.6542 1.6711 1.8499 3.0120 1.5667 1.2482 1.3001 2.8808 3.1650 1.3295 1.3507 1.5033 1.9017 1.0177 3.0397 2.2799 1.0057 1.9288 2.5411 1.1956 1.6955 2.0981 1.4855 2.0375 1.7952 2.8180 2.6494 2.6196 1.8671 2.1068 1.6430 1.7854 1.3629 1.9634 2.3951 1.0854 2.3912 2.6886 1.9369 1.5838 2.5679 1.4848
1.2207 2.3867 2.6255 1.2816 1.4641 2.5545 1.7072 1.1502 1.2663 1.6036 1.2785 2.0786 1.2572 1.7192 1.7555 1.4849 2.0870 1.6950 1.5634 1.6266 2.9641 1.4664 1.1552 1.2785 2.7708 2.9907 1.3142 1.2369 1.4410 1.8383 0.9449 2.8903 2.2316 0.9584 1.8816 2.2755 1.1530 1.6672 1.8381 1.4135 1.9404 1.7765 2.6150 2.4392 2.5348 1.8177 2.1002 1.5317 1.6434 1.2935 1.7312 2.2582 1.0808 2.2743 2.5650 1.7908 1.4585 2.2635 1.3699
1.2050 2.2340 2.3274 1.2291 1.3752 2.4637 1.5847 1.1332 1.2130 1.4261 1.1449 1.8652 1.1796 1.7213 1.7475 1.4171 1.9478 1.5197 1.4378 1.5778 2.7903 1.4323 1.1458 1.1705 2.6367 2.8761 1.1952 1.2341 1.3883 1.6980 0.9500 2.6671 2.0422 0.9233 1.7286 2.1554 1.1605 1.5067 1.7021 1.2465 1.7974 1.7119 2.5394 2.3616 2.3784 1.6880 1.9434 1.4356 1.5564 1.2739 1.6835 2.1673 0.9989 2.1193 2.4264 1.7489 1.4338 2.1960 1.3124
1.1340 2.1159 2.2731 1.1899 1.3229 2.3287 1.5463 1.1103 1.2151 1.3421 1.0783 1.8375 1.1409 1.5843 1.6540 1.3844 1.7956 1.5273 1.4377 1.5070 2.6923 1.4093 1.1202 1.1392 2.4978 2.6985 1.2171 1.1502 1.3136 1.6299 0.8725 2.5583 1.9769 0.9004 1.6568 2.0055 1.0857 1.5305 1.5812 1.1842 1.7474 1.5997 2.3299 2.1696 2.2019 1.6158 1.8644 1.3270 1.5551 1.2523 1.5659 1.9924 0.9779 2.1062 2.2617 1.6317 1.3883 1.9926 1.2299
1.1026 2.0239 2.2813 1.1367 1.2738 2.1723 1.4546 1.0434 1.1847 1.3464 1.0520 1.7883 1.0559 1.5002 1.5688 1.2935 1.7808 1.4512 1.4756 1.4904 2.5510 1.3517 1.0735 1.1384 2.4422 2.5641 1.1890 1.0947 1.2769 1.6199 0.8180 2.4539 1.9486 0.8696 1.6300 1.9077 1.0742 1.4569 1.5557 1.1909 1.6894 1.5413 2.2569 2.0635 2.1065 1.5101 1.8085 1.2930 1.5399 1.2315 1.5052 1.9199 0.9333 2.0510 2.1645 1.5430 1.3821 1.8975 1.1442
1.0438 1.9032 2.1207 1.1436 1.2183 2.0932 1.3906 1.0018 1.1204 1.2655 1.0143 1.6867 0.9883 1.4323 1.5220 1.2925 1.7294 1.4363 1.4156 1.3752 2.4776 1.2928 1.0464 1.0605 2.2731 2.4412 1.1164 1.0675 1.2570 1.4969 0.7902 2.2724 1.8963 0.8319 1.5279 1.7907 1.0222 1.4153 1.4765 1.1079 1.5750 1.4543 2.1604 1.9948 2.0759 1.4975 1.7640 1.2535 1.4652 1.2260 1.4454 1.7930 0.9207 1.9263 2.0540 1.5058 1.3060 1.8412 1.0784
1.0058 1.9183 2.0588 1.1091 1.1738 1.9992 1.3746 0.9723 1.0662 1.2423 0.9775 1.6716 0.9798 1.4504 1.4374 1.2546 1.6024 1.3146 1.3086 1.2977 2.4145 1.2132 1.0103 1.0603 2.1881 2.3700 1.1022 1.0182 1.2139 1.4299 0.7597 2.3149 1.8273 0.8075 1.4468 1.7456 0.9789 1.3474 1.4132 1.1087 1.5752 1.4593 2.1771 1.9096 1.9896 1.4439 1.6448 1.1671 1.3701 1.1567 1.3715 1.7635 0.9108 1.8779 1.9887 1.4318 1.2388 1.7761 1.0558
0.9694 1.7764 2.0468 1.0724 1.1856 1.9690 1.3382 0.9244 1.0686 1.1778 0.9191 1.6300 0.9391 1.3962 1.4414 1.1995 1.5922 1.3175 1.2984 1.3249 2.3785 1.1612 0.9748 1.0326 2.2307 2.2011 1.0931 1.0059 1.1640 1.4018 0.7523 2.1553 1.8105 0.7780 1.4920 1.6337 0.9675 1.3502 1.3731 1.0721 1.5013 1.3838 2.0450 1.7765 1.8981 1.4350 1.6578 1.1325 1.3691 1.1050 1.2815 1.6869 0.8855 1.8034 1.9173 1.3677 1.2338 1.6290 1.0082
0.9347 1.6982 1.9216 1.0250 1.1684 1.8619 1.2572 0.9255 1.0087 1.1538 0.9070 1.5167 0.9023 1.3105 1.3832 1.2056 1.5723 1.3597 1.2406 1.2506 2.2336 1.1244 0.9827 0.9884 2.0360 2.1041 1.0242 0.9699 1.1526 1.3266 0.7067 2.0624 1.7416 0.7502 1.3732 1.5627 0.9732 1.2967 1.3566 1.0054 1.4033 1.3274 1.9569 1.8128 1.9222 1.3685 1.5953 1.1662 1.2631 1.0932 1.2356 1.5689 0.8652 1.7311 1.7960 1.3423 1.1926 1.6316 0.9502
0.9423 1.6780 1.8332 1.0227 1.1300 1.8715 1.2080 0.8759 0.9432 1.0854 0.8735 1.4768 0.8560 1.2733 1.2857 1.0894 1.4644 1.2271 1.1460 1.2069 2.1890 1.0681 0.9380 0.9419 2.0068 2.0626 1.0557 0.9294 1.1124 1.3123 0.7025 2.0497 1.6859 0.7426 1.3445 1.5453 0.8733 1.1933 1.2800 0.9789 1.3634 1.2829 1.9062 1.7021 1.7691 1.3174 1.5034 1.0880 1.2324 1.0229 1.1818 1.5218 0.8311 1.7228 1.7808 1.2673 1.1684 1.5416 0.9290
0.9323 1.6001 1.8237 1.0108 1.1321 1.7852 1.1541 0.8530 0.9435 1.0669 0.8773 1.4420 0.8727 1.2446 1.2767 1.0425 1.4432 1.2141 1.2196 1.1733 2.1452 1.0523 0.8989 0.9326 1.9238 1.9882 0.9817 0.9242 1.1254 1.3456 0.6950 2.0025 1.6775 0.7193 1.2915 1.4670 0.9018 1.1575 1.2659 0.9503 1.3610 1.2713 1.8671 1.6539 1.7012 1.2397 1.4826 1.0881 1.2013 1.0332 1.1223 1.4801 0.7903 1.6309 1.6729 1.2608 1.1275 1.4703 0.9216
0.8785 1.5990 1.6991 0.9682 1.0839 1.7184 1.1050 0.8571 0.9388 1.0688 0.8057 1.3743 0.8467 1.2151 1.2311 1.0297 1.3562 1.1468 1.0785 1.1255 2.0443 0.9762 0.8753 0.8750 1.8471 1.9106 0.9809 0.8867 1.0488 1.2201 0.6522 1.9572 1.5700 0.6961 1.2053 1.4152 0.8911 1.1539 1.2190 0.9211 1.3021 1.2162 1.7950 1.5809 1.6412 1.2055 1.3949 1.0023 1.1039 0.9331 1.0761 1.4120 0.8284 1.5638 1.6588 1.2380 1.0802 1.4176 0.8850
0.8647 1.4931 1.5940 0.9431 1.0667 1.6340 1.0820 0.8057 0.8986 1.0166 0.7869 1.3566 0.8254 1.2058 1.2142 1.0460 1.3457 1.1744 1.1296 1.0726 1.9663 0.9559 0.8915 0.8315 1.7598 1.8360 0.9145 0.8781 1.0253 1.1948 0.6550 1.7813 1.5214 0.6888 1.1900 1.4003 0.8283 1.1218 1.1585 0.9078 1.2701 1.2062 1.7667 1.5324 1.6399 1.1804 1.4040 0.9740 1.1008 0.9828 1.0259 1.3442 0.8039 1.5122 1.5871 1.2006 1.0642 1.3954 0.8773
0.8452 1.5014 1.5953 0.9061 1.0243 1.5458 1.0216 0.8143 0.8783 0.9909 0.7822 1.2628 0.7686 1.1080 1.1581 1.0082 1.2930 1.1535 1.1555 1.0630 1.8976 0.9415 0.8472 0.8701 1.7345 1.7441 0.9240 0.8788 0.9861 1.1750 0.6550 1.8213 1.4667 0.6748 1.1634 1.2930 0.8008 1.0768 1.1610 0.8672 1.1816 1.0972 1.6135 1.4757 1.5726 1.1658 1.3647 0.9733 1.0900 0.9708 1.0237 1.3565 0.7517 1.4892 1.5004 1.1263 1.0611 1.3331 0.8638
0.8026 1.4654 1.5116 0.9063 0.9619 1.5181 0.9845 0.7853 0.8221 0.9210 0.7403 1.2684 0.7223 1.0814 1.1517 0.9640 1.2513 1.1224 1.0919 1.0220 1.8427 0.8791 0.8203 0.8226 1.7276 1.6825 0.8847 0.8121 0.9844 1.1085 0.6031 1.7599 1.4278 0.6449 1.1037 1.2598 0.7559 1.0276 1.1011 0.8431 1.1567 1.0957 1.6176 1.4354 1.4743 1.1368 1.3291 0.9299 1.0312 0.9120 0.9799 1.2795 0.7078 1.4164 1.5151 1.0934 0.9930 1.3026 0.8154
0.7947 1.3757 1.4433 0.8609 0.9575 1.4448 0.9706 0.7622 0.8361 0.9018 0.7305 1.2173 0.6982 1.0620 1.0758 0.9642 1.2594 1.0668 0.9827 0.9822 1.7247 0.8565 0.7920 0.7997 1.6196 1.6693 0.8670 0.7836 0.9432 1.0795 0.5906 1.6842 1.3624 0.6339 1.0970 1.2057 0.7380 1.0172 1.0535 0.8386 1.1070 1.0450 1.5804 1.4012 1.5203 1.1092 1.2887 0.9115 0.9995 0.8532 0.9352 1.2579 0.7324 1.3933 1.4101 1.0504 0.9433 1.2299 0.7778
0.7695 1.3269 1.4379 0.8512 0.9679 1.4185 0.8936 0.7453 0.7682 0.8555 0.7145 1.2058 0.6858 1.0559 1.0487 0.9177 1.1657 1.0343 0.9439 0.9712 1.6355 0.8342 0.7758 0.7715 1.5247 1.6065 0.8140 0.7613 0.9114 1.0619 0.5730 1.6217 1.3552 0.6243 1.0812 1.1808 0.7423 0.9200 1.0415 0.8002 1.1053 1.0389 1.5774 1.3687 1.4196 1.0581 1.2082 0.8815 0.9513 0.8444 0.9259 1.1506 0.7124 1.3121 1.3887 1.0535 0.9233 1.1909 0.7584
0.7525 1.2610 1.3170 0.8638 0.8680 1.3438 0.9423 0.6868 0.7806 0.8569 0.6995 1.1994 0.6794 0.9932 1.0316 0.9055 1.1218 1.0108 0.8971 0.9327 1.5907 0.7681 0.7242 0.7481 1.4817 1.5154 0.8399 0.7753 0.9179 1.0196 0.5669 1.5065 1.3071 0.6143 1.0220 1.1801 0.7055 0.9408 1.0098 0.7942 1.1147 1.0262 1.5195 1.3399 1.3832 1.0132 1.1679 0.8525 0.8938 0.7775 0.9134 1.1469 0.6877 1.3039 1.2976 1.0128 0.9467 1.1480 0.7366
0.7334 1.2414 1.2955 0.8364 0.8782 1.2975 0.8887 0.6900 0.7587 0.8615 0.6697 1.1553 0.6583 0.9996 1.0068 0.8780 1.1361 0.9464 0.8931 0.8766 1.5399 0.7335 0.7254 0.7308 1.4573 1.5196 0.8025 0.7247 0.8946 0.9898 0.5396 1.4916 1.2688 0.6168 1.0019 1.1435 0.6973 0.9208 1.0057 0.7875 1.0537 0.9883 1.4682 1.2611 1.3639 0.9645 1.1559 0.8316 0.8612 0.7628 0.8604 1.1596 0.6637 1.2800 1.2796 0.9561 0.8979 1.1305 0.7162
0.7343 1.1491 1.2696 0.7997 0.8554 1.2847 0.8735 0.6947 0.7432 0.8149 0.6481 1.1143 0.6493 0.9672 0.9775 0.8498 1.0816 0.9399 0.8481 0.8599 1.5039 0.7647 0.6822 0.7145 1.4092 1.4382 0.7808 0.7060 0.8740 0.9921 0.5172 1.4350 1.2305 0.5889 0.9630 1.1278 0.6874 0.8936 0.9584 0.7425 1.0150 0.9535 1.4507 1.2356 1.3251 0.9593 1.1213 0.8025 0.8372 0.7481 0.8578 1.1212 0.6551 1.2231 1.1957 0.9384 0.8661 1.1229 0.6587
0.7099 1.1265 1.2664 0.7782 0.8084 1.1923 0.8002 0.6623 0.7168 0.7751 0.6406 1.0659 0.6146 0.9245 0.9310 0.8183 1.0523 0.9660 0.8413 0.8420 1.4052 0.7107 0.7061 0.6941 1.3896 1.4013 0.7712 0.6829 0.8381 0.9471 0.5059 1.4020 1.1755 0.5764 0.9515 1.0468 0.6510 0.8346 0.9418 0.7115 0.9909 0.9194 1.3745 1.1863 1.2646 0.9399 1.1021 0.7793 0.8239 0.7430 0.8079 1.0865 0.6573 1.1897 1.2009 0.9086 0.8527 1.0536 0.6404
0.6733 1.1219 1.2051 0.7825 0.8083 1.2215 0.8045 0.6193 0.6814 0.7772 0.6286 1.0028 0.6157 0.8938 0.9076 0.8212 1.0555 0.9307 0.8532 0.8408 1.4024 0.7124 0.6659 0.6601 1.3076 1.3436 0.7386 0.7023 0.8073 0.9037 0.4974 1.3718 1.1589 0.5689 0.9270 1.0608 0.6425 0.8232 0.9330 0.7043 0.9190 0.8860 1.3302 1.1910 1.2755 0.9271 1.1040 0.7708 0.8300 0.7168 0.7822 1.0414 0.6038 1.1346 1.1725 0.9103 0.8257 1.0586 0.6408
0.6727 1.1018 1.1705 0.7611 0.8099 1.1632 0.7730 0.6401 0.6851 0.7477 0.6013 0.9990 0.5830 0.8656 0.8793 0.7919 0.9888 0.8907 0.8464 0.7974 1.2905 0.6955 0.6357 0.6661 1.2363 1.3083 0.7045 0.6600 0.8206 0.8946 0.4820 1.3704 1.1489 0.5463 0.9040 1.0049 0.6780 0.7859 0.8861 0.6974 0.9041 0.8723 1.2738 1.1131 1.1991 0.8625 1.0360 0.7378 0.7762 0.7324 0.7635 1.0153 0.6036 1.1125 1.1191 0.8621 0.8111 0.9997 0.6236
0.6556 1.0800 1.1615 0.7690 0.8305 1.1243 0.8052 0.6406 0.6890 0.7296 0.5962 0.9810 0.5707 0.8597 0.8768 0.7894 0.9591 0.8961 0.8521 0.8016 1.2939 0.6657 0.6447 0.6348 1.2612 1.2684 0.6928 0.6375 0.8067 0.8740 0.4753 1.3176 1.1394 0.5511 0.9275 1.0111 0.6830 0.7610 0.8785 0.6634 0.8998 0.8446 1.2687 1.1130 1.1819 0.8718 1.0056 0.7491 0.7690 0.7421 0.7345 0.9648 0.6036 1.0480 1.1323 0.8581 0.7701 0.9667 0.6207
0.6417 1.0214 1.1133 0.7624 0.8200 1.0972 0.7507 0.6323 0.6522 0.6914 0.5617 0.9678 0.5833 0.8303 0.8397 0.7632 0.9468 0.8233 0.7782 0.7915 1.2789 0.6257 0.6108 0.6304 1.2180 1.2429 0.6632 0.6240 0.7789 0.8594 0.4661 1.2651 1.1137 0.5921 0.8851 0.9819 0.6308 0.7446 0.8640 0.6413 0.8958 0.8300 1.2624 1.0681 1.1481 0.8045 0.9469 0.7106 0.7548 0.6466 0.7367 0.9674 0.5874 1.0405 1.0507 0.8221 0.7286 0.9750 0.6032
0.6216 0.9691 1.0803 0.7313 0.7654 1.0687 0.7373 0.5893 0.6553 0.6800 0.5775 0.9199 0.5544 0.8043 0.8287 0.8223 0.9491 0.9350 0.7313 0.7535 1.2176 0.6426 0.6215 0.6304 1.1921 1.1953 0.6732 0.6053 0.7463 0.8332 0.4496 1.2278 1.0609 0.5779 0.8285 0.9618 0.6131 0.7182 0.8355 0.6304 0.8586 0.8069 1.2147 1.0501 1.1942 0.8059 0.9431 0.7100 0.7466 0.6614 0.7128 0.9305 0.6068 1.0224 1.0207 0.7747 0.7216 0.9362 0.5646
0.6309 0.9433 1.0542 0.6945 0.7617 0.9940 0.6801 0.5761 0.6207 0.6839 0.5388 0.8754 0.5145 0.7516 0.7877 0.7186 0.8848 0.7704 0.6862 0.7520 1.2040 0.6393 0.5780 0.5913 1.1643 1.1703 0.6852 0.6047 0.7416 0.8130 0.4525 1.1773 1.0461 0.4800 0.7995 0.9111 0.5839 0.7039 0.8115 0.6027 0.8030 0.7577 1.1362 1.0119 1.0827 0.7615 0.8907 0.6856 0.6991 0.5954 0.7027 0.9077 0.5591 1.0223 0.9959 0.7917 0.7594 0.8961 0.5577
0.6120 0.9300 1.0253 0.6999 0.7470 0.9434 0.6829 0.5892 0.5801 0.6732 0.5234 0.8722 0.5143 0.7704 0.7704 0.7092 0.8655 0.7954 0.7583 0.7217 1.1688 0.6168 0.5673 0.5855 1.1512 1.1341 0.6653 0.5991 0.7352 0.8033 0.4311 1.1308 1.0419 0.5182 0.7468 0.9234 0.5665 0.6883 0.7841 0.5922 0.8090 0.7663 1.1670 0.9937 1.0479 0.7539 0.9065 0.6598 0.7109 0.6269 0.7036 0.8902 0.5318 0.9931 0.9709 0.7737 0.7440 0.8980 0.5500
0.5959 0.8945 0.9951 0.6708 0.6707 0.9373 0.6854 0.5427 0.5887 0.6379 0.5041 0.8434 0.5136 0.7410 0.7690 0.7050 0.8052 0.7783 0.7133 0.6985 1.0945 0.6029 0.5647 0.5659 1.0790 1.0974 0.6550 0.5838 0.7090 0.7917 0.4357 1.1079 0.9981 0.4814 0.7679 0.8823 0.5417 0.6794 0.7710 0.5723 0.7805 0.7482 1.1050 0.9463 0.9911 0.7124 0.8483 0.6211 0.6529 0.6024 0.6705 0.8366 0.5546 0.9736 0.9457 0.7506 0.7151 0.8459 0.5316
0.5655 0.8497 1.0126 0.6649 0.6711 0.9380 0.6435 0.5724 0.5593 0.6285 0.4921 0.8186 0.4991 0.7132 0.7396 0.6677 0.8125 0.7253 0.6643 0.6816 1.0537 0.5535 0.5114 0.5677 1.0542 1.1051 0.6460 0.5598 0.6790 0.7813 0.4195 1.1073 0.9973 0.4564 0.7537 0.8760 0.5078 0.6554 0.7365 0.5546 0.7665 0.7210 1.0604 0.9312 0.9916 0.7129 0.8388 0.6134 0.6507 0.5531 0.6283 0.8418 0.5168 0.9737 0.9145 0.7364 0.6976 0.8095 0.5162
0.5772 0.8421 0.9403 0.6525 0.7202 0.9097 0.6333 0.5673 0.5509 0.6208 0.4695 0.8034 0.5016 0.7117 0.7329 0.6738 0.7977 0.7229 0.6293 0.6728 1.0674 0.5594 0.5649 0.5819 1.0142 1.0545 0.6403 0.5546 0.6962 0.7550 0.4117 1.0429 0.9734 0.4877 0.7423 0.8580 0.5409 0.6212 0.7352 0.5482 0.7478 0.7170 1.0475 0.8842 0.9737 0.7095 0.8032 0.5906 0.6374 0.5835 0.6346 0.8131 0.5435 0.9596 0.8904 0.7155 0.6708 0.8256 0.5120
0.5964 0.8368 0.9844 0.6610 0.7047 0.8449 0.6380 0.5225 0.6034 0.6065 0.4529 0.8076 0.5152 0.6780 0.7007 0.6209 0.7655 0.6599 0.5931 0.6457 1.0250 0.5555 0.5102 0.5846 1.0003 1.0600 0.6444 0.5361 0.7226 0.7890 0.4028 1.0732 1.0327 0.4526 0.6993 0.8137 0.5404 0.6400 0.6998 0.5447 0.7722 0.6952 1.0378 0.8984 0.9499 0.6740 0.7771 0.5652 0.5976 0.5419 0.6441 0.8014 0.4915 1.0049 0.8545 0.7042 0.6908 0.7882 0.5098
0.6078 0.8077 0.9575 0.6547 0.7059 0.8567 0.6274 0.5413 0.6013 0.5989 0.4503 0.7635 0.5217 0.6790 0.7018 0.6524 0.7336 0.7181 0.6151 0.6270 0.9769 0.5326 0.5059 0.5942 1.0065 1.0967 0.6574 0.5596 0.7572 0.7736 0.4078 1.0621 0.9981 0.4544 0.6995 0.8195 0.5995 0.6167 0.6869 0.5315 0.7504 0.7197 1.0231 0.8687 0.9215 0.6673 0.7668 0.5456 0.5834 0.5570 0.6191 0.8357 0.5142 1.0034 0.8705 0.7284 0.6962 0.7680 0.4970
0.5842 0.8083 0.9280 0.6594 0.7235 0.8348 0.6422 0.5128 0.6097 0.5801 0.4523 0.7421 0.5100 0.6401 0.6660 0.6195 0.7290 0.7170 0.6093 0.6231 1.0025 0.5521 0.4942 0.5487 0.9844 1.0530 0.6396 0.5513 0.7054 0.7334 0.4134 1.0265 0.9725 0.4479 0.6951 0.8040 0.6050 0.6074 0.6659 0.5213 0.7288 0.6644 0.9479 0.8052 0.8908 0.6539 0.7660 0.5476 0.5882 0.5332 0.5954 0.7849 0.5043 0.9846 0.8644 0.7152 0.6935 0.7500 0.4863
0.5779 0.7990 0.9446 0.6582 0.7460 0.7918 0.6098 0.5435 0.5830 0.5638 0.4233 0.7188 0.5056 0.6621 0.6605 0.5995 0.7137 0.6814 0.6189 0.6075 0.9431 0.5556 0.4970 0.5248 0.9277 1.0799 0.6045 0.5347 0.7220 0.7719 0.3969 1.0125 1.0256 0.4434 0.6734 0.7724 0.5930 0.5968 0.6408 0.4909 0.7191 0.6728 0.9336 0.8153 0.8784 0.6477 0.7459 0.5285 0.5902 0.5518 0.5785 0.7780 0.4735 0.9600 0.8516 0.7157 0.6734 0.7178 0.5008
0.5834 0.7454 0.9320 0.6399 0.7107 0.7945 0.5751 0.4916 0.5323 0.5484 0.4182 0.6943 0.4775 0.6362 0.6530 0.5793 0.6775 0.6438 0.5578 0.5973 0.9082 0.4968 0.4741 0.5295 0.9325 1.0535 0.6328 0.5260 0.7037 0.7605 0.4014 0.9890 1.0043 0.4228 0.6751 0.7462 0.5419 0.5580 0.6386 0.4824 0.6755 0.6582 0.9261 0.7932 0.8383 0.6174 0.7139 0.5125 0.5516 0.4819 0.5729 0.7846 0.4736 0.9723 0.8066 0.6967 0.6866 0.7011 0.4635
0.5522 0.7351 0.9711 0.6416 0.7026 0.7773 0.5385 0.4550 0.4669 0.5299 0.4041 0.6798 0.4368 0.6001 0.6311 0.5881 0.6747 0.6571 0.5385 0.5980 0.8995 0.4921 0.4557 0.5241 0.8963 1.0473 0.5914 0.5170 0.6867 0.7573 0.3673 0.9652 1.0325 0.4061 0.6793 0.7405 0.4781 0.5478 0.6253 0.4671 0.6240 0.6149 0.9025 0.7672 0.8260 0.6005 0.7000 0.5076 0.5394 0.4808 0.5710 0.7556 0.4635 0.9315 0.8153 0.7002 0.6583 0.7158 0.4663
0.5398 0.7364 0.9451 0.6466 0.6766 0.7730 0.5191 0.4569 0.4442 0.5125 0.4062 0.6712 0.4245 0.5931 0.6425 0.5741 0.6651 0.6106 0.5418 0.5777 0.8412 0.4678 0.4477 0.5301 0.8684 1.0357 0.6000 0.5210 0.7006 0.7220 0.3696 0.9576 1.0252 0.3983 0.6787 0.7196 0.4330 0.5396 0.5894 0.4752 0.6196 0.6054 0.8837 0.7661 0.8267 0.5771 0.6747 0.5043 0.5294 0.4741 0.5362 0.7398 0.4558 0.9565 0.8008 0.6963 0.6551 0.6593 0.4667
0.5541 0.7178 0.9654 0.6522 0.6825 0.7477 0.5135 0.4631 0.4604 0.5021 0.3931 0.6804 0.4132 0.5883 0.6001 0.5356 0.6269 0.6273 0.5242 0.5673 0.8558 0.4741 0.4641 0.5148 0.8741 1.0285 0.6103 0.5196 0.7100 0.7530 0.3658 0.9550 1.0338 0.4063 0.6740 0.6981 0.4302 0.5457 0.5677 0.4618 0.6240 0.5899 0.8937 0.7498 0.7719 0.5571 0.6564 0.4897 0.5045 0.4864 0.5437 0.7276 0.4729 0.9577 0.7794 0.6933 0.6792 0.6570 0.4519
0.5709 0.6889 0.9498 0.6230 0.6339 0.7220 0.4978 0.4502 0.4791 0.4832 0.3860 0.6249 0.3960 0.5747 0.5949 0.5556 0.6121 0.6160 0.5584 0.5398 0.8075 0.4972 0.4570 0.5071 0.8458 1.0133 0.5848 0.5280 0.7079 0.7671 0.3695 0.9400 0.9959 0.3964 0.6554 0.6716 0.4173 0.5063 0.5436 0.4433 0.5987 0.5700 0.8451 0.7362 0.7720 0.5579 0.6325 0.4662 0.5175 0.5149 0.5122 0.7299 0.4619 0.9263 0.7565 0.6916 0.6779 0.6179 0.4368
0.5161 0.6974 0.9220 0.6214 0.6277 0.7110 0.5114 0.4615 0.4775 0.4659 0.3746 0.6221 0.3933 0.5432 0.5668 0.5128 0.6090 0.5526 0.5261 0.5328 0.7819 0.4603 0.4358 0.4827 0.8180 1.0009 0.5675 0.5181 0.6619 0.7090 0.3576 0.9127 0.9798 0.3917 0.6676 0.6670 0.4449 0.4843 0.5471 0.4295 0.5963 0.5622 0.8227 0.7029 0.7349 0.5631 0.6387 0.4633 0.5008 0.4734 0.4820 0.7120 0.4091 0.9050 0.7606 0.6765 0.6883 0.5988 0.4466
0.5049 0.6721 0.9030 0.6308 0.6186 0.7014 0.4903 0.4424 0.4083 0.4695 0.3665 0.6159 0.3931 0.5530 0.5844 0.5377 0.6177 0.5974 0.5076 0.5210 0.7853 0.4408 0.4227 0.4903 0.8244 1.0069 0.5707 0.5098 0.6694 0.7069 0.3497 0.8904 0.9605 0.3915 0.6321 0.6709 0.3925 0.4780 0.5381 0.4266 0.5741 0.5650 0.8225 0.7241 0.7659 0.5512 0.6216 0.4727 0.4845 0.4527 0.4849 0.7202 0.4466 0.9035 0.7486 0.6858 0.6548 0.5927 0.4404
0.5098 0.6506 0.8720 0.5762 0.5800 0.7028 0.5061 0.4559 0.4681 0.4614 0.3458 0.5835 0.3915 0.5295 0.5725 0.5360 0.5769 0.5959 0.5099 0.5236 0.7793 0.4193 0.4414 0.4551 0.8070 0.9502 0.5401 0.4938 0.6422 0.6852 0.3293 0.8732 0.8960 0.4049 0.6363 0.6467 0.3918 0.4901 0.5326 0.3959 0.5723 0.5336 0.7701 0.6915 0.7377 0.5381 0.5968 0.4429 0.4715 0.4440 0.4704 0.6917 0.4294 0.8623 0.7039 0.6430 0.6454 0.5819 0.4081
0.5000 0.6494 0.8782 0.5904 0.5773 0.6740 0.4876 0.4155 0.4488 0.4558 0.3622 0.5788 0.3698 0.5419 0.5534 0.5164 0.5703 0.5321 0.5053 0.4894 0.7582 0.4219 0.4417 0.4630 0.8079 0.9353 0.5318 0.4769 0.6489 0.6816 0.3264 0.8694 0.9055 0.3972 0.6126 0.6207 0.4001 0.4833 0.5063 0.4039 0.5421 0.5305 0.7931 0.6840 0.7208 0.5100 0.5826 0.4381 0.4698 0.4380 0.4598 0.6786 0.4149 0.8511 0.7173 0.6345 0.6249 0.5712 0.4171
0.5102 0.6363 0.8319 0.5728 0.5748 0.6698 0.4890 0.4328 0.4739 0.4351 0.3539 0.5685 0.3769 0.5171 0.5381 0.4849 0.5663 0.5277 0.4734 0.4962 0.7255 0.4140 0.4075 0.4410 0.7736 0.9103 0.5299 0.4815 0.6505 0.6630 0.3240 0.8627 0.8497 0.3879 0.5900 0.6160 0.4350 0.4654 0.5017 0.3994 0.5284 0.5245 0.7784 0.6595 0.6919 0.4999 0.5739 0.4402 0.4523 0.4258 0.4402 0.6689 0.4124 0.8151 0.6952 0.6253 0.6137 0.5446 0.3924
0.4918 0.6148 0.8431 0.5283 0.5715 0.6407 0.4840 0.4128 0.4440 0.4488 0.3570 0.5580 0.3903 0.5137 0.5194 0.4924 0.5719 0.5781 0.4874 0.4822 0.6932 0.3983 0.3967 0.4446 0.7725 0.8860 0.5194 0.4552 0.5835 0.6658 0.3188 0.8339 0.8258 0.3801 0.6076 0.6165 0.4233 0.4544 0.4972 0.3984 0.5282 0.5403 0.7567 0.6391 0.6892 0.4993 0.5971 0.4328 0.4652 0.4285 0.4368 0.6676 0.3928 0.7927 0.6916 0.6072 0.6260 0.5398 0.3900
0.4820 0.5971 0.8156 0.5249 0.5737 0.6569 0.4416 0.4050 0.3882 0.4259 0.3398 0.5545 0.3656 0.4925 0.5271 0.4817 0.5458 0.5431 0.4780 0.4839 0.7019 0.3938 0.4029 0.4378 0.7707 0.8387 0.5079 0.4446 0.5967 0.6435 0.3132 0.8429 0.8436 0.3460 0.5937 0.5860 0.3849 0.4426 0.4823 0.3881 0.5219 0.5155 0.7488 0.6717 0.6900 0.5000 0.5750 0.4190 0.4407 0.4231 0.4321 0.6632 0.3811 0.7530 0.6444 0.5814 0.5989 0.5223 0.3880
0.4607 0.5982 0.8069 0.5281 0.5827 0.6823 0.4406 0.3919 0.3863 0.4416 0.3480 0.5533 0.3494 0.4927 0.5171 0.4800 0.5430 0.5700 0.4688 0.4822 0.7030 0.3894 0.4050 0.4434 0.7686 0.8640 0.4850 0.4483 0.5735 0.6087 0.3153 0.8521 0.8155 0.3396 0.5965 0.5925 0.3937 0.4491 0.5042 0.3970 0.5086 0.5035 0.7411 0.6617 0.6995 0.5023 0.5760 0.4217 0.4371 0.4131 0.4399 0.6660 0.3927 0.7477 0.6680 0.5874 0.5716 0.5313 0.3717
0.4519 0.5644 0.7758 0.5131 0.5396 0.6474 0.4244 0.3955 0.3832 0.4323 0.3486 0.5415 0.3604 0.4895 0.4982 0.4694 0.5154 0.5118 0.4624 0.4623 0.6875 0.3748 0.4008 0.4134 0.7494 0.8022 0.4795 0.4247 0.5480 0.6090 0.3116 0.8088 0.7661 0.3466 0.5583 0.5722 0.3673 0.4383 0.4836 0.3868 0.5229 0.4971 0.7232 0.6188 0.6540 0.4774 0.5413 0.4136 0.4155 0.4068 0.4130 0.6313 0.3934 0.7004 0.6298 0.5508 0.5311 0.5166 0.3786
0.4229 0.5756 0.7588 0.4945 0.5381 0.6505 0.4335 0.3975 0.3805 0.4190 0.3573 0.5263 0.3422 0.4726 0.5159 0.5101 0.5167 0.5253 0.4680 0.4656 0.6827 0.3823 0.3916 0.4210 0.7406 0.8032 0.4572 0.4221 0.4908 0.5682 0.3148 0.8020 0.7273 0.3542 0.5907 0.5658 0.4250 0.4221 0.4883 0.3812 0.5026 0.4766 0.7007 0.6293 0.6829 0.4798 0.5333 0.4130 0.4235 0.4072 0.4138 0.6412 0.3977 0.6835 0.6369 0.5434 0.5324 0.5110 0.3685
0.4244 0.5659 0.7349 0.4897 0.5537 0.6347 0.4251 0.3665 0.3957 0.4342 0.3639 0.5391 0.3448 0.4706 0.4981 0.4462 0.5142 0.5282 0.4341 0.4620 0.6733 0.3724 0.3906 0.4067 0.7465 0.8147 0.4541 0.4119 0.5129 0.5647 0.3064 0.7796 0.7510 0.3173 0.5608 0.5413 0.4034 0.4374 0.5022 0.3896 0.5102 0.4798 0.7118 0.6185 0.6248 0.4561 0.5411 0.4152 0.4116 0.3796 0.4115 0.6491 0.3719 0.6913 0.6332 0.5275 0.5288 0.4954 0.3666
0.4202 0.5374 0.7487 0.4689 0.5329 0.6398 0.3993 0.3566 0.4141 0.4523 0.3816 0.5087 0.3457 0.4601 0.4773 0.4369 0.5181 0.4983 0.4302 0.4696 0.6477 0.3701 0.3773 0.4018 0.7634 0.7532 0.4580 0.4065 0.5087 0.5598 0.3007 0.7728 0.7367 0.3047 0.5613 0.5780 0.3983 0.4311 0.5131 0.3901 0.4943 0.4751 0.6749 0.6228 0.6356 0.4672 0.5268 0.4326 0.4079 0.3861 0.4179 0.6370 0.3715 0.6408 0.6232 0.5030 0.5263 0.5142 0.3481
0.4193 0.5178 0.7375 0.4639 0.5438 0.6260 0.4020 0.3554 0.4319 0.4608 0.4067 0.5177 0.3464 0.4472 0.4824 0.4671 0.5161 0.5438 0.4541 0.4627 0.6417 0.3676 0.3997 0.3841 0.7637 0.7707 0.4516 0.3960 0.5120 0.5373 0.2964 0.7692 0.7109 0.3046 0.5517 0.5363 0.4195 0.4314 0.5404 0.4016 0.5104 0.4723 0.6657 0.6084 0.6417 0.4518 0.5329 0.4372 0.4110 0.3895 0.4143 0.6452 0.3944 0.6427 0.6093 0.4895 0.5219 0.4963 0.3321
0.3827 0.5033 0.6771 0.4348 0.4724 0.5681 0.3849 0.3501 0.3751 0.4638 0.4423 0.5133 0.3258 0.4421 0.4597 0.4521 0.5069 0.5117 0.4546 0.4693 0.6226 0.3647 0.3544 0.3666 0.7115 0.7171 0.4171 0.3783 0.4527 0.4989 0.2740 0.7179 0.6475 0.3010 0.5016 0.5435 0.3444 0.4117 0.5577 0.4156 0.4871 0.4566 0.6577 0.6005 0.6161 0.4489 0.5199 0.4629 0.4059 0.3988 0.4058 0.5992 0.3447 0.6047 0.5744 0.4725 0.4670 0.5131 0.3253
0.3790 0.4861 0.6458 0.4293 0.4759 0.5825 0.4021 0.3439 0.3795 0.4853 0.4570 0.4939 0.3516 0.4432 0.4644 0.4299 0.5045 0.4832 0.4634 0.4720 0.6313 0.3588 0.3466 0.3590 0.7266 0.7057 0.4176 0.3692 0.4376 0.4964 0.2711 0.6858 0.6441 0.2927 0.5060 0.5487 0.3409 0.4108 0.5990 0.4239 0.4819 0.4497 0.6568 0.5895 0.6033 0.4399 0.5255 0.4607 0.4019 0.3838 0.4100 0.5929 0.3443 0.6057 0.5575 0.4597 0.4585 0.5348 0.3141
0.3709 0.4603 0.6101 0.4405 0.4451 0.5424 0.3846 0.3525 0.3905 0.4901 0.4499 0.4890 0.3437 0.4284 0.4500 0.4424 0.5043 0.4949 0.4367 0.4778 0.5973 0.3545 0.3416 0.3728 0.7030 0.6553 0.4149 0.3533 0.4419 0.4760 0.2683 0.6377 0.6366 0.2924 0.4779 0.5445 0.3275 0.4127 0.6024 0.4068 0.5057 0.4569 0.6339 0.5750 0.6109 0.4371 0.5190 0.4542 0.4040 0.3634 0.4018 0.5609 0.3620 0.5831 0.5328 0.4272 0.4435 0.5137 0.3004
0.3792 0.4548 0.5666 0.4416 0.4519 0.5175 0.3704 0.3459 0.3685 0.4641 0.4561 0.4736 0.3482 0.4392 0.4637 0.4325 0.4941 0.5104 0.4393 0.4772 0.5761 0.3511 0.3603 0.3577 0.6636 0.6401 0.4017 0.3647 0.4446 0.4534 0.2775 0.6017 0.6287 0.2846 0.4588 0.5278 0.3119 0.3858 0.5813 0.4067 0.4824 0.4577 0.6267 0.5849 0.5950 0.4368 0.5143 0.4588 0.4022 0.3426 0.3906 0.5660 0.3692 0.5758 0.5049 0.4194 0.4429 0.5017 0.2959
0.3770 0.4331 0.5486 0.4322 0.4561 0.5113 0.3618 0.3463 0.3713 0.4465 0.4108 0.4613 0.3404 0.4181 0.4388 0.4186 0.4824 0.4791 0.4320 0.4493 0.5621 0.3233 0.3462 0.3422 0.6120 0.5935 0.3872 0.3398 0.4406 0.4448 0.2670 0.5889 0.6148 0.2768 0.4335 0.5112 0.3251 0.3899 0.5419 0.3825 0.4675 0.4406 0.6182 0.5729 0.5889 0.4260 0.4977 0.4311 0.3899 0.3556 0.3682 0.5016 0.3288 0.5382 0.4735 0.4031 0.4121 0.4904 0.2873
0.3582 0.4258 0.5047 0.4280 0.4345 0.4669 0.3544 0.3461 0.3897 0.4169 0.3738 0.4545 0.3400 0.4136 0.4301 0.4030 0.4647 0.4597 0.4215 0.4326 0.5471 0.3255 0.3327 0.3336 0.5912 0.5570 0.3898 0.3358 0.4346 0.4277 0.2637 0.5554 0.5905 0.2695 0.3908 0.4929 0.3308 0.3895 0.5012 0.3529 0.4830 0.4451 0.5961 0.5295 0.5561 0.4131 0.4872 0.4111 0.3620 0.3582 0.3587 0.4907 0.3173 0.5253 0.4541 0.3751 0.4118 0.4786 0.2707
0.3511 0.4031 0.5228 0.4298 0.5096 0.4466 0.3336 0.3329 0.3429 0.4090 0.3498 0.4279 0.3256 0.3977 0.4062 0.3877 0.4426 0.4618 0.3900 0.4210 0.5192 0.3115 0.3272 0.3260 0.5549 0.5395 0.3785 0.3254 0.4321 0.4235 0.2534 0.5575 0.6315 0.2916 0.3943 0.4910 0.3209 0.3604 0.4814 0.3368 0.4440 0.4271 0.5829 0.5199 0.5287 0.4015 0.4662 0.3889 0.3631 0.3273 0.3403 0.4449 0.3075 0.5222 0.4350 0.3723 0.3923 0.4565 0.2632
0.3510 0.3938 0.4962 0.4054 0.4496 0.4480 0.3338 0.3514 0.3312 0.3699 0.3167 0.4147 0.3150 0.3992 0.4074 0.3865 0.4357 0.4716 0.3825 0.3937 0.4996 0.3070 0.3188 0.3129 0.5440 0.5327 0.3656 0.3074 0.4105 0.4035 0.2513 0.5388 0.5808 0.2966 0.3987 0.4515 0.2990 0.3468 0.4405 0.3056 0.4242 0.4202 0.5836 0.4998 0.5286 0.3912 0.4581 0.3674 0.3559 0.3257 0.3213 0.4537 0.3231 0.4950 0.4177 0.3577 0.3702 0.4203 0.2592
0.3292 0.3778 0.4661 0.3809 0.4012 0.4177 0.3341 0.3262 0.3154 0.3543 0.3018 0.3908 0.2842 0.3809 0.3984 0.3911 0.4262 0.4818 0.3827 0.3836 0.4837 0.3044 0.3266 0.3382 0.5247 0.5041 0.3641 0.3095 0.3839 0.3930 0.2451 0.5086 0.5278 0.2583 0.3818 0.4365 0.3026 0.3401 0.4033 0.3040 0.3889 0.4009 0.5471 0.4964 0.5263 0.3795 0.4422 0.3578 0.3459 0.3342 0.3167 0.4298 0.3337 0.5013 0.4037 0.3615 0.3753 0.4027 0.2581
0.3239 0.3870 0.4652 0.3641 0.3905 0.4155 0.3238 0.2997 0.2841 0.3312 0.2759 0.3724 0.2583 0.3700 0.4063 0.3924 0.4041 0.4698 0.3695 0.3754 0.4697 0.2923 0.3133 0.3103 0.4984 0.4991 0.3651 0.3110 0.3707 0.3928 0.2409 0.5214 0.5100 0.2615 0.3746 0.4309 0.2933 0.3206 0.3732 0.2862 0.3583 0.3754 0.5281 0.4849 0.5241 0.3905 0.4353 0.3310 0.3234 0.3231 0.3169 0.4117 0.3239 0.4826 0.4028 0.3494 0.3839 0.3794 0.2460
0.3196 0.3675 0.4511 0.3525 0.4128 0.3862 0.3253 0.3020 0.3079 0.3155 0.2539 0.3696 0.2712 0.3676 0.3822 0.3733 0.3911 0.4442 0.3687 0.3507 0.4548 0.2858 0.3094 0.3148 0.4758 0.4638 0.3657 0.2997 0.3632 0.3869 0.2372 0.4761 0.5032 0.2589 0.3904 0.4055 0.3346 0.3024 0.3619 0.2766 0.3642 0.3772 0.5318 0.4552 0.4937 0.3678 0.4163 0.3080 0.3124 0.3169 0.2864 0.3933 0.3220 0.4795 0.3696 0.3285 0.3649 0.3536 0.2378
0.3071 0.3436 0.4229 0.3463 0.3819 0.3680 0.3148 0.3000 0.3403 0.3106 0.2450 0.3608 0.2789 0.3578 0.3920 0.3727 0.3767 0.4112 0.3510 0.3403 0.4257 0.2759 0.3070 0.2916 0.4553 0.4588 0.3442 0.2978 0.3545 0.3556 0.2403 0.4560 0.4714 0.2509 0.3716 0.4059 0.3324 0.2914 0.3397 0.2668 0.3668 0.3741 0.5123 0.4494 0.4869 0.3491 0.4024 0.2977 0.3061 0.3056 0.2872 0.3617 0.2973 0.4681 0.3660 0.3319 0.3571 0.3446 0.2316
0.3085 0.3422 0.4023 0.3332 0.4036 0.3579 0.2927 0.2867 0.3293 0.2932 0.2440 0.3586 0.2764 0.3642 0.3846 0.3691 0.3694 0.4253 0.3529 0.3223 0.4124 0.2736 0.2859 0.2987 0.4496 0.4408 0.3540 0.2940 0.3431 0.3584 0.2463 0.4451 0.4655 0.2293 0.3342 0.3928 0.3452 0.2877 0.3200 0.2623 0.3680 0.3830 0.5204 0.4509 0.4792 0.3578 0.4042 0.2927 0.2976 0.2878 0.2853 0.3600 0.2922 0.4646 0.3518 0.3178 0.3481 0.3285 0.2293
0.3229 0.3404 0.4055 0.3527 0.3982 0.3635 0.2774 0.2858 0.2995 0.2872 0.2346 0.3384 0.2748 0.3499 0.3774 0.3768 0.3544 0.4447 0.3686 0.3148 0.4145 0.2747 0.3217 0.2905 0.4403 0.4174 0.3451 0.2907 0.3520 0.3544 0.2329 0.4457 0.4926 0.2531 0.3353 0.3775 0.2919 0.2802 0.3124 0.2550 0.3528 0.3639 0.4877 0.4288 0.4829 0.3529 0.3975 0.2766 0.2880 0.3131 0.2701 0.3486 0.3291 0.4437 0.3436 0.3160 0.3432 0.3173 0.2271
0.3030 0.3226 0.4166 0.3491 0.3519 0.3371 0.2843 0.2784 0.2870 0.2790 0.2229 0.3349 0.2625 0.3391 0.3671 0.3638 0.3486 0.4439 0.3506 0.3064 0.3841 0.2676 0.3059 0.2799 0.4020 0.4060 0.3532 0.2829 0.3535 0.3530 0.2221 0.4285 0.4955 0.2423 0.3221 0.3782 0.2749 0.2760 0.2873 0.2503 0.3457 0.3479 0.4825 0.4272 0.4665 0.3466 0.3819 0.2757 0.2767 0.2946 0.2589 0.3351 0.3126 0.4397 0.3247 0.3021 0.3449 0.3045 0.2157
0.2990 0.3198 0.3828 0.3337 0.3390 0.3285 0.2702 0.2787 0.2612 0.2646 0.2166 0.3203 0.2458 0.3322 0.3471 0.3443 0.3418 0.3851 0.3434 0.3026 0.3802 0.2510 0.2787 0.2788 0.4214 0.4037 0.3236 0.2721 0.3598 0.3436 0.2236 0.4234 0.4660 0.2462 0.3074 0.3413 0.2472 0.2709 0.2824 0.2393 0.3261 0.3448 0.4756 0.4184 0.4461 0.3496 0.3849 0.2683 0.2711 0.2923 0.2527 0.3295 0.2809 0.4139 0.3289 0.3013 0.3137 0.2906 0.2173
0.2877 0.3022 0.3795 0.3323 0.3342 0.3237 0.2581 0.2672 0.2701 0.2618 0.2119 0.3249 0.2489 0.3302 0.3557 0.3422 0.3289 0.3836 0.3316 0.2942 0.3624 0.2565 0.2684 0.2819 0.4106 0.3927 0.3132 0.2648 0.3444 0.3302 0.2228 0.4119 0.4380 0.2322 0.3001 0.3358 0.2544 0.2644 0.2769 0.2358 0.3317 0.3480 0.4784 0.4123 0.4355 0.3358 0.3659 0.2615 0.2668 0.2937 0.2521 0.3260 0.2829 0.4041 0.3196 0.2871 0.2956 0.2847 0.2112
0.2872 0.2977 0.3724 0.3121 0.3181 0.3168 0.2520 0.2668 0.2362 0.2570 0.2073 0.3029 0.2278 0.3273 0.3629 0.3684 0.3288 0.4209 0.3218 0.2907 0.3462 0.2532 0.2806 0.2896 0.3975 0.3886 0.3159 0.2639 0.3337 0.3235 0.2311 0.4022 0.4212 0.2290 0.2976 0.3428 0.2275 0.2463 0.2780 0.2234 0.3039 0.3206 0.4592 0.4170 0.4669 0.3245 0.3641 0.2550 0.2632 0.2891 0.2465 0.3295 0.2971 0.4104 0.3161 0.2958 0.3094 0.2795 0.2107
0.2665 0.2935 0.3520 0.3229 0.3230 0.3128 0.2521 0.2723 0.2372 0.2472 0.1984 0.2946 0.2324 0.3164 0.3463 0.3418 0.3079 0.3873 0.3167 0.2801 0.3519 0.2399 0.2805 0.2586 0.3905 0.3783 0.3040 0.2561 0.3325 0.3142 0.2125 0.3962 0.4285 0.2346 0.2892 0.3333 0.2216 0.2453 0.2646 0.2197 0.2938 0.3214 0.4261 0.3840 0.4280 0.3275 0.3459 0.2404 0.2522 0.2792 0.2430 0.3174 0.2809 0.3734 0.3096 0.2860 0.2999 0.2747 0.1996
0.2719 0.2879 0.3680 0.3182 0.3130 0.3141 0.2330 0.2656 0.2230 0.2409 0.2007 0.2931 0.2244 0.3106 0.3363 0.3247 0.3072 0.3912 0.2993 0.2675 0.3341 0.2327 0.2822 0.2567 0.3737 0.3662 0.2920 0.2478 0.3359 0.3071 0.2125 0.3927 0.4274 0.2133 0.3014 0.3207 0.2257 0.2384 0.2505 0.2222 0.2952 0.3187 0.4231 0.3837 0.4089 0.3117 0.3436 0.2364 0.2462 0.2674 0.2353 0.3083 0.2771 0.3755 0.2914 0.2793 0.2852 0.2629 0.1981
0.2694 0.2886 0.3590 0.3158 0.3203 0.2990 0.2319 0.2796 0.2171 0.2358 0.1949 0.2956 0.2293 0.3174 0.3358 0.3377 0.2952 0.3932 0.3102 0.2637 0.3342 0.2210 0.2724 0.2613 0.3647 0.3553 0.2931 0.2465 0.3350 0.3021 0.2135 0.3877 0.4164 0.2083 0.2888 0.3191 0.2235 0.2371 0.2463 0.2169 0.3006 0.3342 0.4410 0.3846 0.4231 0.3153 0.3282 0.2350 0.2381 0.2967 0.2205 0.2935 0.2745 0.3750 0.2881 0.2637 0.2782 0.2523 0.1899
0.2716 0.2810 0.3389 0.2983 0.3126 0.2938 0.2264 0.2643 0.2070 0.2170 0.1843 0.2838 0.2189 0.2946 0.3182 0.3168 0.2885 0.3762 0.2976 0.2554 0.3255 0.2195 0.2592 0.2588 0.3661 0.3432 0.2809 0.2318 0.3298 0.2976 0.2086 0.3786 0.4127 0.2041 0.2665 0.3153 0.2152 0.2246 0.2313 0.2101 0.2801 0.3110 0.4074 0.3642 0.4010 0.3052 0.3302 0.2323 0.2251 0.2985 0.2223 0.3037 0.2567 0.3610 0.2756 0.2538 0.2694 0.2526 0.1888
0.2534 0.2693 0.3279 0.2900 0.3086 0.2941 0.2258 0.2760 0.2423 0.2184 0.1856 0.2851 0.2167 0.2915 0.3233 0.3201 0.2783 0.3481 0.2895 0.2572 0.3178 0.2142 0.2583 0.2419 0.3508 0.3395 0.2778 0.2280 0.2908 0.2929 0.1975 0.3618 0.3867 0.2224 0.2759 0.3210 0.2189 0.2234 0.2306 0.2052 0.2905 0.2981 0.4145 0.3794 0.3970 0.3089 0.3212 0.2263 0.2244 0.2664 0.2142 0.2878 0.2511 0.3620 0.2762 0.2585 0.2876 0.2482 0.1884
0.2505 0.2642 0.3272 0.2894 0.3072 0.2882 0.2419 0.2853 0.2464 0.2173 0.1811 0.2776 0.2321 0.2877 0.3215 0.3090 0.2746 0.3627 0.2853 0.2435 0.3126 0.2170 0.2652 0.2498 0.3440 0.3354 0.2754 0.2379 0.2844 0.2883 0.2050 0.3637 0.3945 0.2079 0.2784 0.3080 0.2249 0.2299 0.2246 0.2000 0.2907 0.3025 0.4067 0.3563 0.3767 0.2995 0.3161 0.2192 0.2210 0.2653 0.2142 0.2843 0.2518 0.3601 0.2656 0.2571 0.2894 0.2418 0.1858
0.2431 0.2598 0.3177 0.2780 0.3067 0.2742 0.2281 0.2447 0.2770 0.2116 0.1803 0.2659 0.2330 0.2919 0.3059 0.2968 0.2843 0.3577 0.2931 0.2378 0.3043 0.2178 0.2463 0.2326 0.3349 0.3156 0.2724 0.2266 0.2880 0.2787 0.1873 0.3476 0.3803 0.1910 0.2694 0.3009 0.2488 0.2199 0.2214 0.2004 0.2918 0.3069 0.4043 0.3532 0.3835 0.2948 0.3222 0.2219 0.2217 0.2678 0.2034 0.2728 0.2386 0.3440 0.2664 0.2453 0.2713 0.2354 0.1793
0.2507 0.2520 0.2996 0.2742 0.3075 0.2737 0.2235 0.2472 0.2737 0.2138 0.1769 0.2652 0.2311 0.2873 0.3081 0.2839 0.2606 0.3322 0.2657 0.2332 0.2972 0.1941 0.2437 0.2255 0.3207 0.3065 0.2647 0.2240 0.2799 0.2690 0.1887 0.3386 0.3583 0.1936 0.2651 0.2979 0.2591 0.2179 0.2155 0.1974 0.2896 0.3029 0.3952 0.3351 0.3579 0.2890 0.2979 0.2103 0.2043 0.2574 0.1999 0.2498 0.2328 0.3303 0.2561 0.2365 0.2582 0.2312 0.1722
0.2450 0.2535 0.3010 0.2602 0.2834 0.2603 0.2166 0.2400 0.2424 0.2050 0.1735 0.2580 0.2265 0.2863 0.3148 0.3073 0.2564 0.3492 0.2549 0.2279 0.2839 0.1961 0.2460 0.2346 0.3150 0.3077 0.2621 0.2338 0.2683 0.2664 0.1891 0.3338 0.3416 0.1897 0.2595 0.2799 0.2294 0.2082 0.2088 0.1941 0.2772 0.2882 0.3887 0.3425 0.3783 0.2798 0.2914 0.2024 0.2042 0.2518 0.2002 0.2540 0.2515 0.3232 0.2609 0.2498 0.2534 0.2197 0.1747
0.2431 0.2429 0.2870 0.2673 0.2881 0.2546 0.2023 0.2371 0.2567 0.1971 0.1694 0.2491 0.2183 0.2761 0.2937 0.2828 0.2512 0.3295 0.2537 0.2338 0.2809 0.1983 0.2297 0.2306 0.3148 0.2883 0.2633 0.2293 0.2794 0.2683 0.1830 0.3218 0.3534 0.1823 0.2431 0.2742 0.2382 0.2036 0.2066 0.1875 0.2716 0.2833 0.3697 0.3274 0.3548 0.2747 0.2912 0.2065 0.1999 0.2408 0.1994 0.2488 0.2445 0.3239 0.2469 0.2369 0.2526 0.2154 0.1654
0.2508 0.2422 0.2823 0.2542 0.2885 0.2559 0.2102 0.2242 0.2532 0.2022 0.1666 0.2443 0.2121 0.2739 0.3036 0.2916 0.2495 0.3426 0.2821 0.2224 0.2758 0.2111 0.2498 0.2212 0.3031 0.2977 0.2621 0.2182 0.2772 0.2661 0.1754 0.3279 0.3434 0.1853 0.2489 0.2723 0.2487 0.1989 0.2050 0.1860 0.2691 0.2845 0.3753 0.3341 0.3537 0.2764 0.2933 0.1997 0.2070 0.2545 0.1865 0.2502 0.2525 0.3209 0.2455 0.2349 0.2600 0.2112 0.1686
0.2210 0.2332 0.2735 0.2474 0.2865 0.2352 0.1952 0.2213 0.1986 0.1959 0.1598 0.2378 0.2046 0.2645 0.2909 0.2897 0.2433 0.3442 0.2857 0.2265 0.2741 0.1984 0.2372 0.2229 0.3088 0.2812 0.2509 0.2144 0.2571 0.2483 0.1719 0.3076 0.3408 0.1820 0.2280 0.2571 0.2149 0.1867 0.2027 0.1799 0.2560 0.2766 0.3659 0.3276 0.3533 0.2773 0.2911 0.1906 0.2022 0.2462 0.1926 0.2460 0.2446 0.3034 0.2368 0.2234 0.2459 0.2098 0.1628
0.2285 0.2343 0.2737 0.2545 0.2665 0.2408 0.1946 0.2299 0.2010 0.1865 0.1625 0.2359 0.1909 0.2723 0.2913 0.2952 0.2451 0.3433 0.2867 0.2151 0.2669 0.2007 0.2412 0.2305 0.2947 0.2757 0.2594 0.2097 0.2678 0.2552 0.1671 0.3139 0.3435 0.1835 0.2166 0.2672 0.2071 0.1938 0.1977 0.1789 0.2455 0.2652 0.3637 0.3199 0.3519 0.2699 0.2904 0.1905 0.2002 0.2399 0.1829 0.2412 0.2601 0.3126 0.2314 0.2195 0.2431 0.2131 0.1645
0.2294 0.2292 0.2770 0.2470 0.2796 0.2370 0.1911 0.2449 0.1843 0.1877 0.1552 0.2340 0.1847 0.2696 0.2857 0.2899 0.2389 0.3286 0.2958 0.2125 0.2627 0.2091 0.2486 0.2214 0.2906 0.2642 0.2543 0.1999 0.2648 0.2566 0.1616 0.3004 0.3515 0.1756 0.2231 0.2654 0.2248 0.1822 0.1953 0.1708 0.2392 0.2700 0.3690 0.3162 0.3415 0.2639 0.2863 0.1874 0.1987 0.2501 0.1792 0.2377 0.2685 0.2987 0.2260 0.2151 0.2327 0.2064 0.1576
0.2251 0.2200 0.2748 0.2465 0.2888 0.2251 0.1912 0.2155 0.1755 0.1826 0.1503 0.2256 0.1842 0.2629 0.2736 0.2776 0.2378 0.3350 0.2667 0.2009 0.2541 0.2007 0.2391 0.2177 0.2910 0.2694 0.2441 0.1992 0.2476 0.2535 0.1654 0.2933 0.3539 0.1696 0.2325 0.2554 0.1965 0.1831 0.1875 0.1655 0.2309 0.2605 0.3516 0.3004 0.3386 0.2634 0.2812 0.1826 0.1863 0.2292 0.1733 0.2437 0.2511 0.3023 0.2189 0.2095 0.2327 0.1973 0.1575
0.2218 0.2193 0.2590 0.2449 0.2910 0.2219 0.1836 0.2303 0.1726 0.1806 0.1564 0.2189 0.1739 0.2548 0.2691 0.2767 0.2314 0.3103 0.2421 0.2057 0.2513 0.1817 0.2213 0.2182 0.2854 0.2586 0.2400 0.1951 0.2526 0.2370 0.1680 0.2918 0.3295 0.1682 0.2298 0.2494 0.2001 0.1856 0.1869 0.1713 0.2259 0.2547 0.3372 0.3065 0.3353 0.2555 0.2660 0.1813 0.1870 0.2213 0.1737 0.2283 0.2293 0.3060 0.2169 0.2064 0.2258 0.1978 0.1518
0.2074 0.2138 0.2665 0.2391 0.2612 0.2178 0.1760 0.2152 0.1616 0.1826 0.1519 0.2146 0.1819 0.2507 0.2673 0.2550 0.2174 0.3042 0.2434 0.2032 0.2431 0.1734 0.2179 0.2397 0.2808 0.2643 0.2440 0.2061 0.2351 0.2358 0.1686 0.2897 0.3202 0.1720 0.2244 0.2475 0.1704 0.1779 0.1840 0.1612 0.2221 0.2490 0.3359 0.2947 0.3114 0.2607 0.2665 0.1844 0.1724 0.2261 0.1694 0.2254 0.2122 0.3254 0.2221 0.2104 0.2502 0.1914 0.1514
0.2034 0.2057 0.2611 0.2350 0.2786 0.2154 0.1707 0.2229 0.1774 0.1743 0.1454 0.2167 0.1796 0.2399 0.2573 0.2532 0.2240 0.3187 0.2466 0.1908 0.2356 0.1732 0.2249 0.2337 0.2690 0.2505 0.2413 0.1994 0.2287 0.2313 0.1644 0.2823 0.3253 0.1744 0.2213 0.2365 0.1777 0.1794 0.1738 0.1630 0.2282 0.2490 0.3252 0.2778 0.3045 0.2524 0.2703 0.1719 0.1741 0.2245 0.1658 0.2218 0.2263 0.2993 0.2024 0.1992 0.2313 0.1775 0.1445
0.2080 0.2052 0.2419 0.2328 0.2446 0.2134 0.1818 0.2310 0.1790 0.1711 0.1391 0.2097 0.1755 0.2394 0.2614 0.2552 0.2208 0.2902 0.2268 0.1827 0.2345 0.1572 0.2074 0.2166 0.2609 0.2382 0.2362 0.1948 0.2393 0.2359 0.1621 0.2736 0.2939 0.1755 0.2162 0.2337 0.1875 0.1721 0.1717 0.1586 0.2239 0.2413 0.3214 0.2831 0.3165 0.2426 0.2537 0.1693 0.1631 0.2108 0.1640 0.2111 0.2151 0.2814 0.2046 0.1925 0.2140 0.1849 0.1461
0.2008 0.1973 0.2356 0.2382 0.2289 0.2099 0.1676 0.2000 0.1696 0.1710 0.1412 0.2061 0.1730 0.2319 0.2528 0.2494 0.2117 0.2980 0.2234 0.1830 0.2293 0.1593 0.2115 0.2026 0.2550 0.2440 0.2267 0.1930 0.2312 0.2234 0.1571 0.2661 0.2879 0.1620 0.2078 0.2312 0.1700 0.1655 0.1700 0.1548 0.2128 0.2321 0.3131 0.2808 0.3067 0.2401 0.2519 0.1639 0.1637 0.1978 0.1590 0.2138 0.2148 0.2739 0.1952 0.1936 0.2045 0.1804 0.1373
0.1913 0.1912 0.2209 0.2145 0.2265 0.2066 0.1654 0.1869 0.1578 0.1627 0.1400 0.2003 0.1619 0.2263 0.2449 0.2567 0.2065 0.3008 0.1993 0.1876 0.2294 0.1631 0.1931 0.1830 0.2554 0.2241 0.2197 0.1866 0.2044 0.2087 0.1576 0.2577 0.2626 0.1653 0.2038 0.2212 0.1723 0.1612 0.1630 0.1542 0.2017 0.2247 0.3071 0.2622 0.2982 0.2323 0.2367 0.1644 0.1623 0.1854 0.1569 0.2075 0.2139 0.2565 0.1939 0.1851 0.2027 0.1726 0.1392
0.1864 0.1880 0.2220 0.2153 0.2371 0.2056 0.1695 0.1808 0.1487 0.1624 0.1347 0.2001 0.1590 0.2248 0.2397 0.2421 0.2079 0.3002 0.1993 0.1767 0.2291 0.1467 0.1893 0.1758 0.2489 0.2278 0.2077 0.1845 0.1988 0.2073 0.1600 0.2524 0.2698 0.1578 0.2053 0.2241 0.1690 0.1538 0.1607 0.1498 0.1994 0.2298 0.3041 0.2666 0.2978 0.2177 0.2306 0.1614 0.1555 0.1820 0.1491 0.2015 0.2009 0.2472 0.1914 0.1899 0.1957 0.1708 0.1388
0.1936 0.1836 0.2231 0.2137 0.2280 0.1945 0.1678 0.1811 0.1740 0.1503 0.1304 0.1878 0.1621 0.2265 0.2376 0.2409 0.2009 0.2897 0.2135 0.1781 0.2184 0.1612 0.1980 0.1750 0.2439 0.2158 0.1998 0.1758 0.2039 0.2085 0.1579 0.2527 0.2653 0.1497 0.1960 0.2168 0.2056 0.1475 0.1564 0.1461 0.1929 0.2234 0.2971 0.2596 0.2952 0.2198 0.2299 0.1597 0.1579 0.2009 0.1497 0.2009 0.1980 0.2432 0.1838 0.1780 0.1903 0.1702 0.1312
0.1997 0.1817 0.2212 0.2104 0.2505 0.1893 0.1659 0.1608 0.1981 0.1512 0.1341 0.1857 0.1708 0.2202 0.2377 0.2405 0.1885 0.2769 0.2344 0.1748 0.2085 0.1774 0.1929 0.1863 0.2407 0.2124 0.2027 0.1792 0.2124 0.2068 0.1531 0.2443 0.2806 0.1504 0.2002 0.2094 0.2226 0.1443 0.1544 0.1481 0.2001 0.2206 0.2924 0.2622 0.2824 0.2245 0.2276 0.1561 0.1546 0.2391 0.1490 0.1991 0.1972 0.2410 0.1799 0.1741 0.2006 0.1625 0.1302
0.2091 0.1796 0.2222 0.1986 0.2701 0.1849 0.1606 0.1733 0.1886 0.1468 0.1344 0.1811 0.1690 0.2143 0.2389 0.2700 0.1946 0.3272 0.2248 0.1719 0.2015 0.1816 0.2057 0.2028 0.2331 0.2187 0.2147 0.1810 0.2144 0.2069 0.1630 0.2466 0.2767 0.1419 0.1964 0.2065 0.2345 0.1446 0.1504 0.1406 0.1952 0.2212 0.2911 0.2494 0.2934 0.2159 0.2207 0.1565 0.1509 0.2445 0.1404 0.2192 0.2415 0.2483 0.1853 0.1685 0.1997 0.1566 0.1264
0.1893 0.1751 0.2071 0.1971 0.2431 0.1742 0.1500 0.1706 0.1509 0.1468 0.1288 0.1767 0.1558 0.2058 0.2286 0.2411 0.1947 0.2771 0.2125 0.1668 0.1981 0.1689 0.1986 0.1726 0.2275 0.2064 0.2040 0.1712 0.2081 0.1916 0.1578 0.2390 0.2626 0.1396 0.1839 0.2053 0.1729 0.1394 0.1488 0.1417 0.1883 0.2177 0.2770 0.2490 0.2840 0.2129 0.2132 0.1521 0.1513 0.2034 0.1400 0.1965 0.2310 0.2408 0.1742 0.1664 0.1888 0.1587 0.1235
0.1753 0.1723 0.2045 0.1965 0.2455 0.1748 0.1463 0.1675 0.1383 0.1405 0.1201 0.1729 0.1561 0.2059 0.2237 0.2288 0.1813 0.2610 0.1910 0.1601 0.1993 0.1536 0.1902 0.1729 0.2268 0.1989 0.1981 0.1750 0.1998 0.1876 0.1541 0.2346 0.2676 0.1438 0.1807 0.1929 0.1499 0.1385 0.1467 0.1306 0.1841 0.2179 0.2750 0.2370 0.2659 0.2046 0.2069 0.1441 0.1408 0.1732 0.1407 0.1796 0.2112 0.2378 0.1670 0.1634 0.1792 0.1522 0.1200
0.1799 0.1659 0.1971 0.1858 0.1968 0.1730 0.1468 0.1633 0.1400 0.1393 0.1162 0.1712 0.1431 0.1967 0.2077 0.2040 0.1725 0.2390 0.1739 0.1547 0.1892 0.1435 0.1805 0.1772 0.2176 0.2005 0.1921 0.1692 0.2058 0.1882 0.1501 0.2259 0.2422 0.1361 0.1734 0.1955 0.1349 0.1392 0.1385 0.1287 0.1733 0.1986 0.2657 0.2274 0.2509 0.1957 0.2014 0.1386 0.1390 0.1656 0.1360 0.1755 0.1972 0.2254 0.1676 0.1625 0.1787 0.1475 0.1203
0.1744 0.1627 0.1997 0.1851 0.1791 0.1781 0.1567 0.1619 0.1488 0.1366 0.1161 0.1633 0.1359 0.1957 0.2097 0.2089 0.1740 0.2355 0.1789 0.1509 0.1889 0.1357 0.1690 0.1738 0.2151 0.1901 0.1960 0.1636 0.2004 0.1860 0.1526 0.2293 0.2314 0.1327 0.1858 0.1885 0.1555 0.1295 0.1371 0.1295 0.1709 0.1931 0.2651 0.2285 0.2511 0.2009 0.2095 0.1339 0.1334 0.1675 0.1335 0.1738 0.1799 0.2250 0.1576 0.1580 0.1679 0.1470 0.1193
0.1601 0.1533 0.1979 0.1741 0.1901 0.1697 0.1475 0.1716 0.1376 0.1304 0.1140 0.1600 0.1400 0.1851 0.2021 0.2047 0.1677 0.2367 0.1819 0.1469 0.1829 0.1323 0.1675 0.1593 0.2050 0.1863 0.1902 0.1610 0.1844 0.1789 0.1493 0.2146 0.2246 0.1359 0.1738 0.1870 0.1574 0.1284 0.1352 0.1240 0.1652 0.1865 0.2541 0.2210 0.2438 0.1875 0.1990 0.1334 0.1280 0.1680 0.1267 0.1708 0.1904 0.2155 0.1545 0.1555 0.1611 0.1430 0.1139
0.1577 0.1500 0.1804 0.1937 0.2022 0.1627 0.1491 0.1564 0.1388 0.1279 0.1103 0.1590 0.1349 0.1849 0.2092 0.2177 0.1650 0.2549 0.1701 0.1428 0.1754 0.1288 0.1661 0.1521 0.1988 0.1785 0.1868 0.1467 0.1875 0.1711 0.1459 0.2059 0.2364 0.1362 0.1711 0.1794 0.1518 0.1268 0.1256 0.1211 0.1661 0.1849 0.2499 0.2272 0.2429 0.1823 0.1891 0.1259 0.1292 0.1604 0.1236 0.1645 0.1901 0.2066 0.1463 0.1443 0.1552 0.1328 0.1129
0.1525 0.1466 0.1697 0.1870 0.1957 0.1552 0.1558 0.1590 0.1448 0.1288 0.1103 0.1532 0.1458 0.1794 0.1989 0.2113 0.1593 0.2442 0.1651 0.1394 0.1661 0.1211 0.1764 0.1481 0.1971 0.1764 0.1826 0.1467 0.1802 0.1683 0.1445 0.1966 0.2393 0.1451 0.1590 0.1827 0.1606 0.1234 0.1255 0.1177 0.1673 0.1882 0.2409 0.2143 0.2439 0.1739 0.1864 0.1255 0.1217 0.1519 0.1206 0.1612 0.1847 0.2005 0.1473 0.1452 0.1544 0.1303 0.1079
0.1521 0.1479 0.1684 0.1709 0.1887 0.1542 0.1361 0.1561 0.1301 0.1245 0.1051 0.1472 0.1384 0.1784 0.1899 0.1958 0.1573 0.2142 0.1674 0.1396 0.1680 0.1278 0.1610 0.1369 0.1989 0.1768 0.1704 0.1375 0.1817 0.1650 0.1403 0.1934 0.2248 0.1226 0.1578 0.1717 0.1465 0.1191 0.1248 0.1160 0.1546 0.1829 0.2348 0.2074 0.2329 0.1853 0.1888 0.1228 0.1246 0.1451 0.1170 0.1603 0.1679 0.2001 0.1465 0.1370 0.1488 0.1254 0.1080
0.1553 0.1433 0.1709 0.1751 0.1946 0.1509 0.1298 0.1487 0.1206 0.1227 0.1049 0.1463 0.1426 0.1743 0.1888 0.2048 0.1603 0.2432 0.1791 0.1308 0.1646 0.1324 0.1656 0.1340 0.1880 0.1695 0.1611 0.1399 0.1805 0.1666 0.1361 0.1901 0.2301 0.1195 0.1556 0.1663 0.1407 0.1153 0.1180 0.1132 0.1583 0.1894 0.2298 0.2084 0.2371 0.1791 0.1873 0.1255 0.1228 0.1644 0.1153 0.1589 0.1757 0.1877 0.1415 0.1400 0.1551 0.1252 0.1021
0.1455 0.1394 0.1609 0.1721 0.1706 0.1480 0.1212 0.1575 0.1153 0.1163 0.1012 0.1417 0.1285 0.1720 0.1853 0.2012 0.1500 0.2292 0.1670 0.1299 0.1587 0.1265 0.1644 0.1442 0.1837 0.1569 0.1917 0.1359 0.1704 0.1582 0.1258 0.1865 0.2113 0.1228 0.1460 0.1633 0.1149 0.1155 0.1151 0.1109 0.1496 0.1738 0.2252 0.2012 0.2247 0.1680 0.1767 0.1172 0.1148 0.1477 0.1078 0.1545 0.1859 0.1967 0.1350 0.1358 0.1626 0.1191 0.1023
0.1461 0.1319 0.1561 0.1636 0.1650 0.1395 0.1149 0.1554 0.1138 0.1148 0.1022 0.1375 0.1219 0.1731 0.1865 0.1905 0.1510 0.2374 0.1672 0.1280 0.1532 0.1207 0.1722 0.1602 0.1767 0.1524 0.1808 0.1357 0.1549 0.1547 0.1288 0.1743 0.2059 0.1220 0.1440 0.1623 0.1181 0.1101 0.1171 0.1090 0.1474 0.1729 0.2277 0.1930 0.2179 0.1760 0.1790 0.1182 0.1182 0.1548 0.1124 0.1414 0.1872 0.1860 0.1298 0.1353 0.1475 0.1227 0.1014
0.1458 0.1327 0.1625 0.1600 0.1780 0.1400 0.1122 0.1507 0.1198 0.1105 0.0957 0.1356 0.1217 0.1656 0.1878 0.1898 0.1428 0.2327 0.1693 0.1286 0.1487 0.1092 0.1639 0.1486 0.1757 0.1487 0.1676 0.1392 0.1549 0.1526 0.1264 0.1774 0.2173 0.1232 0.1455 0.1562 0.1230 0.1105 0.1143 0.1054 0.1431 0.1690 0.2149 0.1872 0.2167 0.1683 0.1777 0.1112 0.1149 0.1557 0.1049 0.1367 0.1620 0.1791 0.1325 0.1295 0.1475 0.1181 0.0975
0.1504 0.1255 0.1579 0.1480 0.1666 0.1327 0.1128 0.1439 0.1099 0.1102 0.0944 0.1297 0.1204 0.1568 0.1768 0.1901 0.1424 0.2137 0.1593 0.1205 0.1450 0.1055 0.1537 0.1392 0.1747 0.1438 0.1567 0.1363 0.1507 0.1514 0.1202 0.1707 0.2016 0.1152 0.1410 0.1520 0.1134 0.1043 0.1064 0.1033 0.1387 0.1566 0.2087 0.1848 0.2127 0.1659 0.1669 0.1089 0.1060 0.1401 0.1045 0.1336 0.1600 0.1722 0.1280 0.1230 0.1404 0.1145 0.0954
0.1420 0.1234 0.1515 0.1500 0.1620 0.1296 0.1094 0.1259 0.1039 0.1067 0.0942 0.1281 0.1153 0.1662 0.1759 0.1858 0.1385 0.2336 0.1562 0.1182 0.1446 0.1021 0.1504 0.1403 0.1725 0.1438 0.1543 0.1239 0.1519 0.1466 0.1129 0.1696 0.1840 0.1102 0.1346 0.1441 0.1178 0.1013 0.1068 0.1028 0.1356 0.1632 0.2065 0.1777 0.2077 0.1537 0.1625 0.1072 0.1038 0.1507 0.1033 0.1344 0.1637 0.1662 0.1250 0.1212 0.1377 0.1133 0.0941
0.1402 0.1241 0.1512 0.1471 0.1563 0.1265 0.1029 0.1226 0.1012 0.1039 0.0911 0.1259 0.1088 0.1645 0.1824 0.1890 0.1335 0.2235 0.1569 0.1161 0.1410 0.1012 0.1644 0.1304 0.1606 0.1365 0.1605 0.1177 0.1591 0.1463 0.1113 0.1722 0.1927 0.1047 0.1294 0.1392 0.1147 0.1007 0.1053 0.0998 0.1307 0.1560 0.2004 0.1715 0.2100 0.1606 0.1609 0.1008 0.1038 0.1410 0.0980 0.1270 0.1581 0.1669 0.1190 0.1142 0.1321 0.1062 0.0929
0.1297 0.1172 0.1343 0.1491 0.1460 0.1252 0.0973 0.1323 0.1100 0.1018 0.0865 0.1209 0.1133 0.1552 0.1638 0.1604 0.1270 0.1929 0.1408 0.1134 0.1324 0.1038 0.1440 0.1319 0.1538 0.1308 0.1438 0.1168 0.1459 0.1272 0.1072 0.1554 0.1765 0.1016 0.1226 0.1401 0.1238 0.0953 0.1005 0.0954 0.1309 0.1522 0.1991 0.1716 0.1919 0.1592 0.1592 0.0996 0.0984 0.1284 0.0973 0.1250 0.1436 0.1587 0.1148 0.1123 0.1235 0.1050 0.0847
0.1200 0.1131 0.1329 0.1417 0.1418 0.1224 0.0988 0.1508 0.1140 0.0961 0.0850 0.1174 0.1135 0.1488 0.1598 0.1582 0.1281 0.1984 0.1439 0.1107 0.1308 0.0963 0.1354 0.1183 0.1534 0.1257 0.1307 0.1192 0.1327 0.1269 0.1014 0.1561 0.1565 0.1129 0.1190 0.1363 0.1162 0.0912 0.0984 0.0927 0.1320 0.1543 0.1838 0.1642 0.1880 0.1460 0.1584 0.0967 0.0965 0.1280 0.0928 0.1212 0.1400 0.1493 0.1108 0.1114 0.1235 0.1030 0.0873
0.1139 0.1095 0.1308 0.1328 0.1503 0.1221 0.0956 0.1314 0.1064 0.0938 0.0831 0.1146 0.1071 0.1495 0.1592 0.1555 0.1211 0.1903 0.1413 0.1066 0.1255 0.1067 0.1357 0.1246 0.1502 0.1240 0.1395 0.1153 0.1236 0.1272 0.0994 0.1516 0.1666 0.1030 0.1139 0.1371 0.1129 0.0913 0.0937 0.0925 0.1232 0.1458 0.1801 0.1596 0.1812 0.1454 0.1470 0.0968 0.0983 0.1247 0.0948 0.1168 0.1383 0.1551 0.1116 0.1069 0.1300 0.1022 0.0838
0.1104 0.1081 0.1188 0.1284 0.1418 0.1142 0.0938 0.1261 0.1031 0.0924 0.0813 0.1108 0.1061 0.1371 0.1473 0.1490 0.1175 0.1771 0.1370 0.1009 0.1205 0.1055 0.1460 0.1200 0.1493 0.1139 0.1425 0.1041 0.1187 0.1199 0.0992 0.1432 0.1608 0.1004 0.1148 0.1284 0.1167 0.0879 0.0910 0.0901 0.1204 0.1369 0.1764 0.1537 0.1730 0.1481 0.1515 0.0940 0.0957 0.1165 0.0921 0.1109 0.1365 0.1482 0.1074 0.1035 0.1192 0.0953 0.0789
0.1090 0.1040 0.1134 0.1219 0.1385 0.1112 0.0971 0.1415 0.1004 0.0916 0.0795 0.1038 0.1033 0.1369 0.1478 0.1516 0.1145 0.1815 0.1336 0.1034 0.1187 0.0941 0.1368 0.1140 0.1437 0.1129 0.1382 0.1062 0.1182 0.1204 0.0948 0.1374 0.1473 0.1141 0.1113 0.1252 0.1087 0.0835 0.0878 0.0841 0.1145 0.1402 0.1707 0.1535 0.1687 0.1430 0.1452 0.0921 0.0911 0.1170 0.0890 0.1109 0.1290 0.1466 0.1043 0.0993 0.1169 0.0917 0.0777
0.1050 0.1029 0.1143 0.1241 0.1302 0.1054 0.0917 0.1183 0.0890 0.0891 0.0766 0.1023 0.0924 0.1342 0.1481 0.1446 0.1131 0.1827 0.1331 0.0977 0.1137 0.0932 0.1270 0.1116 0.1350 0.1090 0.1306 0.1062 0.1142 0.1185 0.0921 0.1338 0.1545 0.0946 0.1056 0.1178 0.0940 0.0805 0.0861 0.0834 0.1074 0.1275 0.1683 0.1503 0.1669 0.1319 0.1385 0.0892 0.0880 0.1229 0.0871 0.1078 0.1345 0.1402 0.0981 0.0982 0.1137 0.0883 0.0763
0.1049 0.0972 0.1088 0.1196 0.1171 0.1036 0.0876 0.1140 0.0927 0.0818 0.0757 0.0995 0.0924 0.1223 0.1364 0.1419 0.1074 0.1967 0.1588 0.0959 0.1124 0.1056 0.1315 0.1240 0.1354 0.1116 0.1306 0.0989 0.1203 0.1148 0.0872 0.1339 0.1401 0.0949 0.0988 0.1175 0.0874 0.0764 0.0848 0.0808 0.1079 0.1239 0.1603 0.1405 0.1584 0.1391 0.1426 0.0886 0.0875 0.1515 0.0808 0.1057 0.1299 0.1483 0.0971 0.0963 0.1197 0.0871 0.0750
0.0985 0.0957 0.1089 0.1207 0.1358 0.1015 0.0841 0.1165 0.0850 0.0838 0.0758 0.0943 0.0891 0.1181 0.1307 0.1427 0.1024 0.1918 0.1597 0.0956 0.1059 0.0961 0.1324 0.1270 0.1268 0.1039 0.1424 0.1001 0.1140 0.1089 0.0897 0.1289 0.1452 0.0985 0.1003 0.1156 0.0827 0.0781 0.0823 0.0774 0.1039 0.1222 0.1546 0.1382 0.1554 0.1425 0.1451 0.0870 0.0841 0.1433 0.0797 0.1018 0.1222 0.1507 0.0949 0.0928 0.1277 0.0854 0.0727
0.0963 0.0913 0.1041 0.1154 0.1371 0.0958 0.0791 0.1146 0.0818 0.0799 0.0701 0.0953 0.0904 0.1176 0.1259 0.1274 0.0976 0.1576 0.1218 0.0901 0.1037 0.0935 0.1183 0.1154 0.1210 0.1052 0.1279 0.0937 0.1137 0.1078 0.0868 0.1187 0.1462 0.0830 0.0986 0.1090 0.0878 0.0759 0.0803 0.0766 0.1061 0.1228 0.1542 0.1331 0.1440 0.1213 0.1246 0.0804 0.0792 0.1125 0.0757 0.1072 0.1213 0.1421 0.0902 0.0900 0.1087 0.0813 0.0719
0.0914 0.0895 0.1007 0.1141 0.1194 0.0936 0.0773 0.1062 0.0791 0.0780 0.0681 0.0924 0.0869 0.1147 0.1241 0.1313 0.0971 0.1504 0.1044 0.0870 0.0988 0.0822 0.1113 0.0993 0.1218 0.0994 0.1193 0.0869 0.1127 0.1011 0.0780 0.1240 0.1358 0.0786 0.0927 0.1077 0.0803 0.0750 0.0778 0.0727 0.1044 0.1189 0.1479 0.1287 0.1469 0.1159 0.1164 0.0781 0.0758 0.0995 0.0753 0.0995 0.1164 0.1236 0.0877 0.0869 0.0999 0.0792 0.0690
0.0957 0.0885 0.0951 0.1131 0.1030 0.0914 0.0747 0.1071 0.0737 0.0753 0.0661 0.0907 0.0839 0.1089 0.1212 0.1347 0.0930 0.1780 0.1042 0.0835 0.0996 0.0760 0.1203 0.0969 0.1193 0.0945 0.1106 0.0848 0.1105 0.1002 0.0778 0.1183 0.1269 0.0790 0.0874 0.1050 0.0816 0.0732 0.0745 0.0709 0.1010 0.1112 0.1463 0.1268 0.1453 0.1117 0.1128 0.0746 0.0718 0.0984 0.0722 0.0900 0.1261 0.1198 0.0848 0.0869 0.0919 0.0781 0.0665
0.0914 0.0828 0.0957 0.1033 0.1010 0.0903 0.0750 0.1071 0.0720 0.0735 0.0629 0.0871 0.0794 0.1020 0.1176 0.1232 0.0883 0.1552 0.0991 0.0796 0.0962 0.0747 0.1003 0.0981 0.1155 0.0902 0.1164 0.0800 0.1078 0.0974 0.0747 0.1145 0.1254 0.0897 0.0928 0.1017 0.0710 0.0680 0.0718 0.0666 0.0946 0.1041 0.1330 0.1184 0.1341 0.1078 0.1059 0.0730 0.0704 0.0970 0.0723 0.0863 0.1107 0.1216 0.0827 0.0815 0.0955 0.0760 0.0632
0.0937 0.0798 0.0966 0.1018 0.1259 0.0881 0.0713 0.1009 0.0739 0.0695 0.0618 0.0844 0.0787 0.1052 0.1172 0.1225 0.0876 0.1484 0.1123 0.0777 0.0889 0.0816 0.1058 0.1029 0.1123 0.0889 0.1111 0.0825 0.1147 0.0970 0.0749 0.1102 0.1449 0.0766 0.0837 0.0981 0.0860 0.0675 0.0692 0.0661 0.0909 0.1054 0.1379 0.1180 0.1338 0.1090 0.1097 0.0710 0.0702 0.1166 0.0687 0.0868 0.1086 0.1182 0.0820 0.0779 0.0999 0.0739 0.0607
0.0961 0.0809 0.0905 0.1014 0.1352 0.0822 0.0722 0.1118 0.0757 0.0679 0.0622 0.0784 0.0860 0.1000 0.1136 0.1194 0.0868 0.1521 0.1091 0.0775 0.0901 0.0746 0.0999 0.1060 0.1096 0.0860 0.1155 0.0854 0.1089 0.0979 0.0796 0.1069 0.1348 0.0774 0.0854 0.0952 0.1065 0.0629 0.0673 0.0661 0.0888 0.1086 0.1294 0.1124 0.1309 0.1119 0.1125 0.0700 0.0681 0.1090 0.0645 0.0878 0.1023 0.1232 0.0789 0.0770 0.1010 0.0698 0.0621
0.0815 0.0739 0.0861 0.0963 0.1046 0.0801 0.0736 0.1152 0.0803 0.0664 0.0598 0.0778 0.0820 0.1023 0.1108 0.1126 0.0835 0.1372 0.1009 0.0735 0.0861 0.0670 0.0966 0.0994 0.1082 0.0836 0.1094 0.0855 0.1008 0.0872 0.0777 0.1000 0.1208 0.0802 0.0840 0.0887 0.0766 0.0637 0.0642 0.0630 0.0906 0.1061 0.1260 0.1099 0.1245 0.1036 0.1061 0.0677 0.0651 0.0921 0.0634 0.0819 0.1087 0.1150 0.0758 0.0751 0.0909 0.0669 0.0573
0.0763 0.0730 0.0832 0.0986 0.1071 0.0772 0.0693 0.0912 0.0748 0.0629 0.0568 0.0735 0.0762 0.0970 0.1061 0.1148 0.0805 0.1346 0.0950 0.0702 0.0813 0.0645 0.0900 0.0923 0.0986 0.0784 0.1002 0.0771 0.0952 0.0819 0.0694 0.0953 0.1284 0.0716 0.0796 0.0865 0.0662 0.0622 0.0629 0.0606 0.0856 0.0995 0.1186 0.1047 0.1226 0.1000 0.0992 0.0639 0.0638 0.0871 0.0620 0.0736 0.0962 0.1103 0.0732 0.0721 0.0843 0.0670 0.0569
0.0790 0.0696 0.0845 0.0963 0.1115 0.0771 0.0745 0.0893 0.0773 0.0625 0.0547 0.0686 0.0771 0.0932 0.1019 0.1045 0.0772 0.1291 0.0929 0.0680 0.0807 0.0614 0.0974 0.0852 0.0976 0.0718 0.0995 0.0748 0.0904 0.0860 0.0676 0.0958 0.1285 0.0732 0.0812 0.0844 0.0756 0.0592 0.0606 0.0582 0.0806 0.0965 0.1150 0.1049 0.1145 0.0976 0.0970 0.0609 0.0607 0.0811 0.0567 0.0706 0.0989 0.1043 0.0696 0.0682 0.0825 0.0622 0.0534
0.0789 0.0686 0.0841 0.0855 0.0975 0.0729 0.0727 0.0997 0.0733 0.0609 0.0510 0.0685 0.0675 0.0897 0.0951 0.0944 0.0718 0.1214 0.0864 0.0651 0.0782 0.0605 0.0862 0.0890 0.0921 0.0719 0.0967 0.0683 0.0864 0.0799 0.0635 0.0937 0.1127 0.0732 0.0774 0.0831 0.0692 0.0583 0.0590 0.0549 0.0770 0.0904 0.1136 0.0982 0.1065 0.0893 0.0915 0.0580 0.0584 0.0793 0.0570 0.0693 0.0879 0.1036 0.0664 0.0665 0.0810 0.0613 0.0520
0.0696 0.0645 0.0739 0.0786 0.0878 0.0703 0.0634 0.0867 0.0601 0.0563 0.0493 0.0670 0.0620 0.0860 0.0916 0.1002 0.0715 0.1109 0.0808 0.0612 0.0730 0.0605 0.0899 0.0840 0.0889 0.0701 0.0816 0.0698 0.0760 0.0745 0.0624 0.0890 0.0975 0.0651 0.0709 0.0774 0.0630 0.0535 0.0530 0.0525 0.0729 0.0843 0.1098 0.0934 0.1091 0.0872 0.0869 0.0562 0.0571 0.0809 0.0556 0.0660 0.0844 0.0948 0.0647 0.0643 0.0754 0.0580 0.0478
0.0691 0.0622 0.0705 0.0835 0.0906 0.0666 0.0586 0.0794 0.0639 0.0551 0.0486 0.0636 0.0649 0.0802 0.0887 0.0945 0.0684 0.1222 0.0770 0.0602 0.0686 0.0599 0.0897 0.0881 0.0832 0.0660 0.0803 0.0707 0.0771 0.0719 0.0639 0.0856 0.0955 0.0603 0.0681 0.0780 0.0655 0.0526 0.0534 0.0509 0.0730 0.0827 0.1024 0.0909 0.1056 0.0853 0.0865 0.0535 0.0547 0.0741 0.0537 0.0642 0.0918 0.0913 0.0595 0.0630 0.0715 0.0567 0.0483
0.0698 0.0601 0.0660 0.0867 0.0990 0.0655 0.0542 0.0772 0.0547 0.0517 0.0461 0.0590 0.0633 0.0831 0.0902 0.0885 0.0654 0.1068 0.0749 0.0582 0.0667 0.0543 0.0837 0.0811 0.0825 0.0656 0.0855 0.0653 0.0775 0.0718 0.0601 0.0803 0.1044 0.0598 0.0615 0.0712 0.0634 0.0500 0.0511 0.0492 0.0679 0.0835 0.1025 0.0911 0.1001 0.0877 0.0851 0.0536 0.0495 0.0678 0.0505 0.0601 0.0803 0.0939 0.0598 0.0600 0.0719 0.0526 0.0456
0.0629 0.0569 0.0628 0.0781 0.0890 0.0607 0.0536 0.0691 0.0562 0.0499 0.0460 0.0584 0.0605 0.0814 0.0877 0.0970 0.0632 0.1131 0.0713 0.0577 0.0639 0.0542 0.0831 0.0851 0.0763 0.0613 0.0845 0.0587 0.0692 0.0670 0.0549 0.0762 0.0934 0.0575 0.0628 0.0690 0.0630 0.0451 0.0498 0.0485 0.0665 0.0798 0.0983 0.0846 0.0997 0.0786 0.0763 0.0505 0.0495 0.0724 0.0495 0.0578 0.0901 0.0899 0.0570 0.0564 0.0712 0.0505 0.0444
0.0609 0.0542 0.0612 0.0734 0.0812 0.0588 0.0483 0.0707 0.0503 0.0498 0.0434 0.0563 0.0598 0.0732 0.0812 0.0917 0.0612 0.1039 0.0688 0.0549 0.0629 0.0562 0.0720 0.0843 0.0780 0.0579 0.0800 0.0553 0.0649 0.0657 0.0530 0.0715 0.0876 0.0527 0.0591 0.0689 0.0545 0.0448 0.0475 0.0462 0.0639 0.0752 0.0921 0.0817 0.0943 0.0758 0.0746 0.0485 0.0483 0.0692 0.0463 0.0609 0.0865 0.0848 0.0550 0.0549 0.0651 0.0489 0.0422
0.0592 0.0512 0.0624 0.0666 0.0782 0.0578 0.0469 0.0628 0.0495 0.0479 0.0404 0.0527 0.0559 0.0709 0.0783 0.0771 0.0576 0.0918 0.0652 0.0530 0.0600 0.0520 0.0690 0.0663 0.0748 0.0548 0.0707 0.0555 0.0605 0.0656 0.0520 0.0699 0.0819 0.0487 0.0605 0.0636 0.0537 0.0440 0.0456 0.0437 0.0602 0.0728 0.0885 0.0787 0.0874 0.0724 0.0720 0.0465 0.0469 0.0590 0.0440 0.0604 0.0706 0.0756 0.0510 0.0520 0.0608 0.0462 0.0419
0.0586 0.0505 0.0603 0.0702 0.0714 0.0549 0.0442 0.0689 0.0492 0.0432 0.0394 0.0527 0.0508 0.0684 0.0737 0.0780 0.0564 0.0960 0.0647 0.0506 0.0570 0.0506 0.0690 0.0682 0.0726 0.0543 0.0750 0.0553 0.0623 0.0651 0.0508 0.0674 0.0801 0.0472 0.0558 0.0625 0.0509 0.0426 0.0437 0.0425 0.0608 0.0686 0.0887 0.0761 0.0842 0.0712 0.0697 0.0447 0.0445 0.0617 0.0434 0.0568 0.0814 0.0758 0.0518 0.0515 0.0622 0.0451 0.0407
0.0532 0.0488 0.0591 0.0686 0.0745 0.0521 0.0433 0.0618 0.0492 0.0432 0.0386 0.0485 0.0508 0.0663 0.0737 0.0788 0.0553 0.1001 0.0625 0.0480 0.0551 0.0504 0.0669 0.0642 0.0684 0.0534 0.0723 0.0538 0.0573 0.0598 0.0506 0.0644 0.0810 0.0469 0.0557 0.0612 0.0464 0.0398 0.0414 0.0397 0.0575 0.0663 0.0822 0.0739 0.0868 0.0653 0.0660 0.0431 0.0413 0.0612 0.0428 0.0553 0.0803 0.0719 0.0487 0.0506 0.0582 0.0433 0.0391
0.0507 0.0474 0.0617 0.0629 0.0736 0.0492 0.0419 0.0571 0.0515 0.0418 0.0378 0.0492 0.0480 0.0625 0.0668 0.0684 0.0497 0.0837 0.0624 0.0463 0.0528 0.0488 0.0591 0.0607 0.0643 0.0536 0.0723 0.0498 0.0568 0.0563 0.0477 0.0656 0.0763 0.0444 0.0533 0.0583 0.0491 0.0396 0.0398 0.0390 0.0573 0.0626 0.0820 0.0696 0.0759 0.0616 0.0617 0.0414 0.0391 0.0636 0.0412 0.0528 0.0743 0.0729 0.0459 0.0483 0.0586 0.0408 0.0369
0.0536 0.0461 0.0545 0.0588 0.0647 0.0469 0.0392 0.0545 0.0502 0.0388 0.0346 0.0456 0.0496 0.0598 0.0677 0.0680 0.0490 0.0877 0.0654 0.0467 0.0508 0.0491 0.0597 0.0586 0.0600 0.0514 0.0621 0.0489 0.0600 0.0542 0.0474 0.0632 0.0717 0.0410 0.0482 0.0548 0.0464 0.0371 0.0389 0.0380 0.0556 0.0621 0.0752 0.0646 0.0731 0.0617 0.0622 0.0400 0.0392 0.0711 0.0390 0.0511 0.0691 0.0665 0.0427 0.0452 0.0570 0.0409 0.0353
0.0531 0.0455 0.0542 0.0631 0.0756 0.0451 0.0385 0.0510 0.0473 0.0382 0.0336 0.0443 0.0513 0.0606 0.0666 0.0701 0.0465 0.0829 0.0596 0.0432 0.0494 0.0474 0.0611 0.0629 0.0609 0.0479 0.0653 0.0502 0.0623 0.0545 0.0460 0.0616 0.0827 0.0417 0.0473 0.0518 0.0463 0.0357 0.0376 0.0365 0.0554 0.0614 0.0738 0.0649 0.0728 0.0608 0.0586 0.0384 0.0368 0.0612 0.0369 0.0526 0.0705 0.0693 0.0430 0.0449 0.0565 0.0389 0.0350
0.0489 0.0424 0.0570 0.0608 0.0800 0.0462 0.0371 0.0547 0.0426 0.0358 0.0325 0.0414 0.0469 0.0576 0.0621 0.0641 0.0443 0.0835 0.0533 0.0411 0.0482 0.0371 0.0578 0.0538 0.0577 0.0473 0.0631 0.0447 0.0610 0.0519 0.0413 0.0591 0.0833 0.0394 0.0507 0.0519 0.0551 0.0341 0.0348 0.0347 0.0497 0.0598 0.0683 0.0603 0.0697 0.0589 0.0582 0.0366 0.0344 0.0502 0.0367 0.0466 0.0579 0.0664 0.0413 0.0420 0.0551 0.0360 0.0332
0.0466 0.0403 0.0438 0.0583 0.0616 0.0420 0.0349 0.0487 0.0414 0.0353 0.0311 0.0400 0.0454 0.0573 0.0598 0.0592 0.0412 0.0728 0.0531 0.0394 0.0438 0.0355 0.0535 0.0511 0.0547 0.0446 0.0550 0.0427 0.0528 0.0484 0.0426 0.0530 0.0670 0.0399 0.0431 0.0482 0.0488 0.0323 0.0338 0.0330 0.0492 0.0589 0.0692 0.0580 0.0627 0.0562 0.0548 0.0350 0.0347 0.0505 0.0344 0.0413 0.0543 0.0575 0.0391 0.0397 0.0484 0.0348 0.0320
0.0440 0.0373 0.0406 0.0609 0.0632 0.0408 0.0366 0.0495 0.0419 0.0346 0.0307 0.0386 0.0457 0.0544 0.0580 0.0663 0.0419 0.0878 0.0528 0.0375 0.0436 0.0371 0.0573 0.0465 0.0521 0.0422 0.0549 0.0441 0.0537 0.0467 0.0421 0.0496 0.0669 0.0399 0.0421 0.0472 0.0464 0.0304 0.0323 0.0326 0.0500 0.0587 0.0662 0.0557 0.0660 0.0541 0.0516 0.0340 0.0345 0.0513 0.0319 0.0420 0.0616 0.0544 0.0369 0.0401 0.0494 0.0341 0.0318
0.0446 0.0366 0.0414 0.0598 0.0889 0.0394 0.0331 0.0498 0.0395 0.0317 0.0285 0.0369 0.0443 0.0498 0.0533 0.0571 0.0402 0.0697 0.0487 0.0352 0.0413 0.0369 0.0475 0.0466 0.0508 0.0404 0.0511 0.0446 0.0542 0.0446 0.0442 0.0478 0.0783 0.0362 0.0441 0.0449 0.0549 0.0307 0.0303 0.0308 0.0464 0.0570 0.0601 0.0534 0.0607 0.0512 0.0496 0.0329 0.0316 0.0461 0.0311 0.0415 0.0540 0.0563 0.0347 0.0390 0.0458 0.0315 0.0295
0.0418 0.0346 0.0396 0.0548 0.0672 0.0375 0.0306 0.0525 0.0379 0.0315 0.0267 0.0360 0.0404 0.0483 0.0508 0.0563 0.0374 0.0748 0.0507 0.0332 0.0390 0.0387 0.0494 0.0531 0.0481 0.0391 0.0524 0.0413 0.0517 0.0436 0.0386 0.0463 0.0644 0.0369 0.0394 0.0433 0.0493 0.0293 0.0289 0.0289 0.0443 0.0518 0.0600 0.0508 0.0587 0.0492 0.0488 0.0294 0.0303 0.0504 0.0289 0.0408 0.0556 0.0587 0.0343 0.0354 0.0420 0.0300 0.0273
0.0389 0.0335 0.0391 0.0511 0.0566 0.0349 0.0301 0.0423 0.0345 0.0298 0.0259 0.0343 0.0380 0.0453 0.0480 0.0540 0.0356 0.0708 0.0471 0.0337 0.0374 0.0362 0.0477 0.0541 0.0461 0.0379 0.0571 0.0434 0.0449 0.0415 0.0362 0.0439 0.0587 0.0359 0.0388 0.0410 0.0453 0.0277 0.0281 0.0277 0.0409 0.0482 0.0575 0.0488 0.0557 0.0482 0.0486 0.0290 0.0285 0.0490 0.0296 0.0388 0.0562 0.0585 0.0336 0.0360 0.0435 0.0290 0.0269
0.0398 0.0319 0.0344 0.0424 0.0607 0.0329 0.0287 0.0434 0.0326 0.0283 0.0251 0.0315 0.0360 0.0426 0.0466 0.0534 0.0341 0.0668 0.0440 0.0304 0.0351 0.0321 0.0475 0.0457 0.0437 0.0358 0.0476 0.0385 0.0421 0.0395 0.0336 0.0411 0.0510 0.0299 0.0386 0.0383 0.0505 0.0264 0.0268 0.0265 0.0369 0.0438 0.0538 0.0468 0.0535 0.0446 0.0432 0.0278 0.0289 0.0415 0.0272 0.0343 0.0512 0.0505 0.0314 0.0336 0.0387 0.0272 0.0250
0.0377 0.0312 0.0334 0.0381 0.0493 0.0312 0.0290 0.0388 0.0392 0.0267 0.0244 0.0302 0.0330 0.0407 0.0454 0.0474 0.0332 0.0614 0.0445 0.0293 0.0334 0.0305 0.0459 0.0388 0.0412 0.0330 0.0444 0.0329 0.0394 0.0372 0.0314 0.0407 0.0446 0.0292 0.0352 0.0382 0.0507 0.0250 0.0261 0.0258 0.0360 0.0433 0.0508 0.0443 0.0496 0.0415 0.0423 0.0264 0.0273 0.0392 0.0258 0.0308 0.0481 0.0447 0.0298 0.0305 0.0351 0.0263 0.0232
0.0338 0.0294 0.0326 0.0411 0.0447 0.0296 0.0301 0.0350 0.0360 0.0256 0.0229 0.0286 0.0310 0.0376 0.0429 0.0447 0.0313 0.0596 0.0485 0.0285 0.0328 0.0320 0.0480 0.0379 0.0398 0.0325 0.0417 0.0331 0.0372 0.0344 0.0312 0.0394 0.0411 0.0330 0.0372 0.0361 0.0405 0.0245 0.0238 0.0239 0.0331 0.0393 0.0484 0.0431 0.0471 0.0442 0.0448 0.0263 0.0265 0.0452 0.0243 0.0339 0.0438 0.0427 0.0290 0.0297 0.0352 0.0254 0.0228
0.0324 0.0273 0.0294 0.0430 0.0421 0.0282 0.0318 0.0394 0.0289 0.0235 0.0212 0.0271 0.0285 0.0372 0.0401 0.0414 0.0282 0.0531 0.0406 0.0262 0.0299 0.0265 0.0382 0.0445 0.0384 0.0289 0.0439 0.0344 0.0358 0.0336 0.0311 0.0376 0.0446 0.0348 0.0329 0.0323 0.0324 0.0231 0.0224 0.0224 0.0309 0.0371 0.0447 0.0396 0.0447 0.0404 0.0392 0.0235 0.0237 0.0396 0.0238 0.0303 0.0420 0.0443 0.0264 0.0293 0.0348 0.0241 0.0224
0.0338 0.0263 0.0302 0.0411 0.0457 0.0282 0.0285 0.0413 0.0236 0.0231 0.0209 0.0262 0.0281 0.0361 0.0390 0.0421 0.0286 0.0577 0.0379 0.0253 0.0292 0.0250 0.0385 0.0435 0.0348 0.0271 0.0428 0.0347 0.0356 0.0345 0.0306 0.0347 0.0475 0.0356 0.0312 0.0322 0.0284 0.0211 0.0220 0.0214 0.0296 0.0360 0.0451 0.0395 0.0444 0.0377 0.0379 0.0232 0.0233 0.0373 0.0224 0.0266 0.0432 0.0432 0.0243 0.0276 0.0327 0.0227 0.0201
0.0328 0.0248 0.0289 0.0380 0.0358 0.0257 0.0273 0.0332 0.0250 0.0219 0.0202 0.0246 0.0271 0.0325 0.0368 0.0390 0.0266 0.0544 0.0444 0.0247 0.0267 0.0264 0.0363 0.0417 0.0333 0.0263 0.0405 0.0319 0.0357 0.0310 0.0284 0.0335 0.0388 0.0302 0.0330 0.0296 0.0271 0.0205 0.0211 0.0211 0.0287 0.0334 0.0406 0.0366 0.0407 0.0366 0.0388 0.0218 0.0231 0.0420 0.0217 0.0239 0.0363 0.0401 0.0245 0.0262 0.0318 0.0203 0.0196
0.0330 0.0241 0.0269 0.0397 0.0379 0.0258 0.0254 0.0319 0.0234 0.0208 0.0189 0.0241 0.0275 0.0339 0.0348 0.0378 0.0247 0.0509 0.0379 0.0231 0.0257 0.0248 0.0331 0.0436 0.0330 0.0246 0.0372 0.0272 0.0361 0.0309 0.0264 0.0321 0.0455 0.0294 0.0295 0.0291 0.0313 0.0190 0.0194 0.0197 0.0280 0.0356 0.0406 0.0340 0.0380 0.0351 0.0346 0.0212 0.0212 0.0410 0.0206 0.0240 0.0359 0.0373 0.0230 0.0239 0.0292 0.0206 0.0188
0.0300 0.0227 0.0284 0.0347 0.0416 0.0230 0.0214 0.0293 0.0220 0.0194 0.0179 0.0221 0.0273 0.0325 0.0342 0.0400 0.0233 0.0515 0.0348 0.0219 0.0242 0.0210 0.0323 0.0406 0.0309 0.0236 0.0356 0.0271 0.0330 0.0298 0.0243 0.0296 0.0450 0.0256 0.0298 0.0278 0.0300 0.0175 0.0190 0.0185 0.0267 0.0336 0.0370 0.0327 0.0377 0.0342 0.0317 0.0196 0.0190 0.0417 0.0193 0.0229 0.0342 0.0358 0.0220 0.0242 0.0295 0.0199 0.0180
0.0280 0.0219 0.0263 0.0326 0.0439 0.0219 0.0219 0.0266 0.0262 0.0184 0.0166 0.0209 0.0268 0.0296 0.0320 0.0372 0.0234 0.0484 0.0349 0.0210 0.0235 0.0237 0.0365 0.0309 0.0291 0.0220 0.0313 0.0260 0.0318 0.0273 0.0235 0.0282 0.0426 0.0231 0.0259 0.0262 0.0451 0.0165 0.0175 0.0175 0.0258 0.0320 0.0347 0.0303 0.0370 0.0308 0.0309 0.0193 0.0189 0.0338 0.0182 0.0233 0.0372 0.0306 0.0214 0.0217 0.0255 0.0185 0.0174
0.0271 0.0193 0.0248 0.0310 0.0377 0.0211 0.0193 0.0288 0.0234 0.0173 0.0156 0.0192 0.0235 0.0285 0.0302 0.0325 0.0210 0.0394 0.0309 0.0196 0.0221 0.0209 0.0327 0.0307 0.0268 0.0204 0.0306 0.0244 0.0304 0.0263 0.0226 0.0259 0.0401 0.0238 0.0239 0.0243 0.0307 0.0154 0.0169 0.0160 0.0240 0.0290 0.0340 0.0290 0.0329 0.0273 0.0270 0.0170 0.0185 0.0261 0.0169 0.0197 0.0365 0.0318 0.0186 0.0205 0.0233 0.0175 0.0155
0.0257 0.0186 0.0224 0.0279 0.0476 0.0204 0.0159 0.0270 0.0211 0.0159 0.0143 0.0187 0.0231 0.0243 0.0275 0.0309 0.0198 0.0378 0.0331 0.0180 0.0209 0.0257 0.0328 0.0309 0.0255 0.0189 0.0272 0.0232 0.0289 0.0248 0.0224 0.0254 0.0400 0.0212 0.0207 0.0233 0.0375 0.0149 0.0150 0.0150 0.0221 0.0261 0.0299 0.0263 0.0307 0.0264 0.0262 0.0161 0.0179 0.0293 0.0163 0.0200 0.0374 0.0288 0.0180 0.0185 0.0211 0.0160 0.0147
0.0234 0.0166 0.0204 0.0224 0.0341 0.0181 0.0142 0.0214 0.0186 0.0144 0.0135 0.0159 0.0215 0.0225 0.0252 0.0306 0.0173 0.0397 0.0333 0.0169 0.0180 0.0225 0.0300 0.0317 0.0230 0.0171 0.0247 0.0213 0.0245 0.0209 0.0199 0.0235 0.0301 0.0162 0.0177 0.0208 0.0276 0.0132 0.0134 0.0139 0.0200 0.0256 0.0270 0.0247 0.0282 0.0258 0.0250 0.0153 0.0162 0.0349 0.0143 0.0182 0.0298 0.0265 0.0161 0.0173 0.0201 0.0142 0.0132
0.0207 0.0146 0.0160 0.0217 0.0263 0.0155 0.0125 0.0201 0.0166 0.0125 0.0114 0.0143 0.0173 0.0197 0.0220 0.0238 0.0152 0.0321 0.0245 0.0145 0.0156 0.0154 0.0217 0.0287 0.0196 0.0147 0.0223 0.0179 0.0228 0.0185 0.0163 0.0189 0.0255 0.0140 0.0155 0.0182 0.0231 0.0113 0.0124 0.0116 0.0178 0.0205 0.0242 0.0213 0.0239 0.0230 0.0214 0.0128 0.0126 0.0284 0.0125 0.0152 0.0214 0.0246 0.0146 0.0147 0.0184 0.0127 0.0116
0.0154 0.0119 0.0128 0.0169 0.0202 0.0124 0.0102 0.0169 0.0141 0.0105 0.0092 0.0117 0.0141 0.0162 0.0179 0.0193 0.0128 0.0247 0.0163 0.0115 0.0131 0.0107 0.0169 0.0172 0.0156 0.0122 0.0169 0.0141 0.0176 0.0144 0.0123 0.0159 0.0196 0.0115 0.0127 0.0152 0.0183 0.0092 0.0098 0.0094 0.0146 0.0174 0.0201 0.0167 0.0193 0.0166 0.0167 0.0103 0.0099 0.0168 0.0101 0.0120 0.0172 0.0181 0.0111 0.0119 0.0155 0.0099 0.0090
0.0099 0.0082 0.0095 0.0119 0.0146 0.0088 0.0074 0.0117 0.0104 0.0076 0.0067 0.0084 0.0100 0.0119 0.0134 0.0162 0.0096 0.0190 0.0111 0.0084 0.0091 0.0084 0.0133 0.0106 0.0115 0.0085 0.0123 0.0094 0.0115 0.0104 0.0089 0.0115 0.0141 0.0084 0.0086 0.0114 0.0108 0.0071 0.0071 0.0069 0.0106 0.0125 0.0144 0.0124 0.0154 0.0118 0.0113 0.0073 0.0074 0.0111 0.0072 0.0086 0.0153 0.0112 0.0081 0.0084 0.0096 0.0074 0.0068
0.0063 0.0048 0.0053 0.0071 0.0092 0.0053 0.0042 0.0072 0.0064 0.0044 0.0039 0.0048 0.0063 0.0069 0.0076 0.0093 0.0055 0.0117 0.0070 0.0048 0.0052 0.0050 0.0081 0.0059 0.0066 0.0050 0.0070 0.0058 0.0068 0.0059 0.0056 0.0068 0.0078 0.0047 0.0053 0.0068 0.0073 0.0040 0.0041 0.0041 0.0065 0.0077 0.0083 0.0070 0.0086 0.0072 0.0066 0.0042 0.0044 0.0072 0.0042 0.0055 0.0084 0.0066 0.0046 0.0050 0.0053 0.0044 0.0039
0.0029 0.0021 0.0026 0.0032 0.0056 0.0025 0.0020 0.0037 0.0030 0.0020 0.0017 0.0021 0.0029 0.0031 0.0035 0.0049 0.0025 0.0059 0.0033 0.0021 0.0023 0.0023 0.0040 0.0030 0.0029 0.0023 0.0031 0.0026 0.0033 0.0027 0.0025 0.0031 0.0045 0.0025 0.0025 0.0033 0.0034 0.0019 0.0018 0.0018 0.0029 0.0033 0.0036 0.0032 0.0043 0.0032 0.0029 0.0018 0.0019 0.0039 0.0018 0.0024 0.0046 0.0032 0.0020 0.0022 0.0025 0.0019 0.0018
0.0008 0.0007 0.0008 0.0010 0.0017 0.0007 0.0006 0.0013 0.0010 0.0006 0.0005 0.0006 0.0009 0.0009 0.0010 0.0012 0.0007 0.0015 0.0010 0.0006 0.0007 0.0007 0.0010 0.0010 0.0009 0.0007 0.0010 0.0008 0.0010 0.0008 0.0008 0.0010 0.0014 0.0008 0.0008 0.0011 0.0010 0.0006 0.0006 0.0005 0.0009 0.0010 0.0011 0.0009 0.0012 0.0009 0.0009 0.0006 0.0006 0.0012 0.0006 0.0007 0.0012 0.0011 0.0006 0.0007 0.0009 0.0006 0.0005
0.0002 0.0002 0.0002 0.0002 0.0005 0.0002 0.0001 0.0004 0.0002 0.0001 0.0001 0.0002 0.0002 0.0002 0.0002 0.0003 0.0002 0.0004 0.0002 0.0001 0.0002 0.0002 0.0003 0.0002 0.0002 0.0002 0.0002 0.0002 0.0002 0.0002 0.0002 0.0002 0.0004 0.0002 0.0002 0.0002 0.0003 0.0002 0.0001 0.0001 0.0002 0.0002 0.0002 0.0002 0.0003 0.0002 0.0002 0.0001 0.0001 0.0003 0.0001 0.0002 0.0003 0.0002 0.0002 0.0002 0.0002 0.0001 0.0001
0.0000 0.0000 0.0000 0.0001 0.0001 0.0000 0.0000 0.0001 0.0000 0.0000 0.0000 0.0000 0.0000 0.0000 0.0001 0.0001 0.0000 0.0001 0.0001 0.0000 0.0000 0.0000 0.0001 0.0000 0.0000 0.0000 0.0001 0.0000 0.0001 0.0001 0.0000 0.0001 0.0001 0.0000 0.0000 0.0001 0.0001 0.0000 0.0000 0.0000 0.0001 0.0001 0.0001 0.0001 0.0001 0.0000 0.0000 0.0000 0.0000 0.0001 0.0000 0.0000 0.0001 0.0001 0.0000 0.0000 0.0000 0.0000 0.0000
0.0000 0.0000 0.0000 0.0000 0.0000 0.0000 0.0000 0.0000 0.0000 0.0000 0.0000 0.0000 0.0000 0.0000 0.0000 0.0001 0.0000 0.0001 0.0000 0.0000 0.0000 0.0000 0.0000 0.0000 0.0000 0.0000 0.0000 0.0000 0.0000 0.0000 0.0000 0.0000 0.0000 0.0000 0.0000 0.0000 0.0000 0.0000 0.0000 0.0000 0.0000 0.0000 0.0000 0.0000 0.0000 0.0000 0.0000 0.0000 0.0000 0.0000 0.0000 0.0000 0.0001 0.0000 0.0000 0.0000 0.0000 0.0000 0.0000
0.0000 0.0000 0.0000 0.0000 0.0000 0.0000 0.0000 0.0000 0.0000 0.0000 0.0000 0.0000 0.0000 0.0000 0.0000 0.0001 0.0000 0.0001 0.0000 0.0000 0.0000 0.0000 0.0000 0.0000 0.0000 0.0000 0.0000 0.0000 0.0000 0.0000 0.0000 0.0000 0.0000 0.0000 0.0000 0.0001 0.0000 0.0000 0.0000 0.0000 0.0000 0.0000 0.0000 0.0000 0.0000 0.0000 0.0000 0.0000 0.0000 0.0000 0.0000 0.0000 0.0001 0.0000 0.0000 0.0000 0.0000 0.0000 0.0000
0.0000 0.0000 0.0000 0.0000 0.0000 0.0000 0.0000 0.0000 0.0000 0.0000 0.0000 0.0000 0.0000 0.0000 0.0000 0.0001 0.0000 0.0001 0.0000 0.0000 0.0000 0.0000 0.0001 0.0000 0.0000 0.0000 0.0000 0.0000 0.0000 0.0000 0.0000 0.0000 0.0000 0.0000 0.0000 0.0001 0.0000 0.0000 0.0000 0.0000 0.0000 0.0000 0.0000 0.0000 0.0001 0.0000 0.0000 0.0000 0.0000 0.0000 0.0000 0.0000 0.0001 0.0000 0.0000 0.0000 0.0000 0.0000 0.0000
0.0000 0.0000 0.0000 0.0000 0.0000 0.0000 0.0000 0.0000 0.0000 0.0000 0.0000 0.0000 0.0000 0.0000 0.0000 0.0001 0.0000 0.0001 0.0000 0.0000 0.0000 0.0000 0.0001 0.0000 0.0000 0.0000 0.0000 0.0000 0.0000 0.0000 0.0000 0.0000 0.0000 0.0000 0.0000 0.0001 0.0000 0.0000 0.0000 0.0000 0.0000 0.0000 0.0000 0.0000 0.0001 0.0000 0.0000 0.0000 0.0000 0.0000 0.0000 0.0000 0.0001 0.0000 0.0000 0.0000 0.0000 0.0000 0.0000
0.0000 0.0000 0.0000 0.0000 0.0000 0.0000 0.0000 0.0000 0.0000 0.0000 0.0000 0.0000 0.0000 0.0000 0.0000 0.0001 0.0000 0.0001 0.0000 0.0000 0.0000 0.0000 0.0001 0.0000 0.0000 0.0000 0.0000 0.0000 0.0000 0.0000 0.0000 0.0000 0.0000 0.0000 0.0000 0.0001 0.0000 0.0000 0.0000 0.0000 0.0000 0.0000 0.0000 0.0000 0.0001 0.0000 0.0000 0.0000 0.0000 0.0000 0.0000 0.0000 0.0001 0.0000 0.0000 0.0000 0.0000 0.0000 0.0000
0.0000 0.0000 0.0000 0.0000 0.0000 0.0000 0.0000 0.0000 0.0000 0.0000 0.0000 0.0000 0.0000 0.0000 0.0000 0.0001 0.0000 0.0001 0.0000 0.0000 0.0000 0.0000 0.0001 0.0000 0.0000 0.0000 0.0000 0.0000 0.0000 0.0000 0.0000 0.0000 0.0000 0.0000 0.0000 0.0001 0.0000 0.0000 0.0000 0.0000 0.0000 0.0000 0.0000 0.0000 0.0001 0.0000 0.0000 0.0000 0.0000 0.0000 0.0000 0.0000 0.0001 0.0000 0.0000 0.0000 0.0000 0.0000 0.0000
0.0000 0.0000 0.0000 0.0000 0.0000 0.0000 0.0000 0.0000 0.0000 0.0000 0.0000 0.0000 0.0000 0.0000 0.0000 0.0001 0.0000 0.0001 0.0000 0.0000 0.0000 0.0000 0.0001 0.0000 0.0000 0.0000 0.0000 0.0000 0.0000 0.0000 0.0000 0.0000 0.0000 0.0000 0.0000 0.0001 0.0000 0.0000 0.0000 0.0000 0.0000 0.0000 0.0000 0.0000 0.0001 0.0000 0.0000 0.0000 0.0000 0.0000 0.0000 0.0000 0.0001 0.0000 0.0000 0.0000 0.0000 0.0000 0.0000
0.0000 0.0000 0.0000 0.0000 0.0000 0.0000 0.0000 0.0000 0.0000 0.0000 0.0000 0.0000 0.0000 0.0000 0.0000 0.0001 0.0000 0.0001 0.0000 0.0000 0.0000 0.0000 0.0001 0.0000 0.0000 0.0000 0.0000 0.0000 0.0000 0.0000 0.0000 0.0000 0.0000 0.0000 0.0000 0.0001 0.0000 0.0000 0.0000 0.0000 0.0000 0.0000 0.0000 0.0000 0.0001 0.0000 0.0000 0.0000 0.0000 0.0000 0.0000 0.0000 0.0001 0.0000 0.0000 0.0000 0.0000 0.0000 0.0000
0.0000 0.0000 0.0000 0.0000 0.0000 0.0000 0.0000 0.0000 0.0000 0.0000 0.0000 0.0000 0.0000 0.0000 0.0000 0.0001 0.0000 0.0001 0.0000 0.0000 0.0000 0.0000 0.0000 0.0000 0.0000 0.0000 0.0000 0.0000 0.0000 0.0000 0.0000 0.0000 0.0000 0.0000 0.0000 0.0001 0.0000 0.0000 0.0000 0.0000 0.0000 0.0000 0.0000 0.0000 0.0000 0.0000 0.0000 0.0000 0.0000 0.0000 0.0000 0.0000 0.0001 0.0000 0.0000 0.0000 0.0000 0.0000 0.0000
0.0000 0.0000 0.0000 0.0000 0.0000 0.0000 0.0000 0.0000 0.0000 0.0000 0.0000 0.0000 0.0000 0.0000 0.0000 0.0001 0.0000 0.0001 0.0000 0.0000 0.0000 0.0000 0.0000 0.0000 0.0000 0.0000 0.0000 0.0000 0.0000 0.0000 0.0000 0.0000 0.0000 0.0000 0.0000 0.0001 0.0000 0.0000 0.0000 0.0000 0.0000 0.0000 0.0000 0.0000 0.0000 0.0000 0.0000 0.0000 0.0000 0.0000 0.0000 0.0000 0.0001 0.0000 0.0000 0.0000 0.0000 0.0000 0.0000
0.0000 0.0000 0.0000 0.0000 0.0000 0.0000 0.0000 0.0000 0.0000 0.0000 0.0000 0.0000 0.0000 0.0000 0.0000 0.0001 0.0000 0.0001 0.0000 0.0000 0.0000 0.0000 0.0000 0.0000 0.0000 0.0000 0.0000 0.0000 0.0000 0.0000 0.0000 0.0000 0.0000 0.0000 0.0000 0.0001 0.0000 0.0000 0.0000 0.0000 0.0000 0.0000 0.0000 0.0000 0.0000 0.0000 0.0000 0.0000 0.0000 0.0000 0.0000 0.0000 0.0001 0.0000 0.0000 0.0000 0.0000 0.0000 0.0000
0.0000 0.0000 0.0000 0.0000 0.0000 0.0000 0.0000 0.0000 0.0000 0.0000 0.0000 0.0000 0.0000 0.0000 0.0000 0.0001 0.0000 0.0001 0.0000 0.0000 0.0000 0.0000 0.0000 0.0000 0.0000 0.0000 0.0000 0.0000 0.0000 0.0000 0.0000 0.0000 0.0000 0.0000 0.0000 0.0001 0.0000 0.0000 0.0000 0.0000 0.0000 0.0000 0.0000 0.0000 0.0000 0.0000 0.0000 0.0000 0.0000 0.0000 0.0000 0.0000 0.0001 0.0000 0.0000 0.0000 0.0000 0.0000 0.0000
0.0000 0.0000 0.0000 0.0000 0.0000 0.0000 0.0000 0.0000 0.0000 0.0000 0.0000 0.0000 0.0000 0.0000 0.0000 0.0000 0.0000 0.0001 0.0000 0.0000 0.0000 0.0000 0.0000 0.0000 0.0000 0.0000 0.0000 0.0000 0.0000 0.0000 0.0000 0.0000 0.0000 0.0000 0.0000 0.0001 0.0000 0.0000 0.0000 0.0000 0.0000 0.0000 0.0000 0.0000 0.0000 0.0000 0.0000 0.0000 0.0000 0.0000 0.0000 0.0000 0.0000 0.0000 0.0000 0.0000 0.0000 0.0000 0.0000
0.0000 0.0000 0.0000 0.0000 0.0000 0.0000 0.0000 0.0000 0.0000 0.0000 0.0000 0.0000 0.0000 0.0000 0.0000 0.0000 0.0000 0.0001 0.0000 0.0000 0.0000 0.0000 0.0000 0.0000 0.0000 0.0000 0.0000 0.0000 0.0000 0.0000 0.0000 0.0000 0.0000 0.0000 0.0000 0.0000 0.0000 0.0000 0.0000 0.0000 0.0000 0.0000 0.0000 0.0000 0.0000 0.0000 0.0000 0.0000 0.0000 0.0000 0.0000 0.0000 0.0000 0.0000 0.0000 0.0000 0.0000 0.0000 0.0000
0.0000 0.0000 0.0000 0.0000 0.0001 0.0000 0.0000 0.0001 0.0001 0.0000 0.0000 0.0000 0.0000 0.0000 0.0000 0.0001 0.0000 0.0001 0.0000 0.0000 0.0000 0.0000 0.0001 0.0000 0.0000 0.0000 0.0001 0.0000 0.0000 0.0000 0.0000 0.0001 0.0001 0.0000 0.0000 0.0001 0.0000 0.0000 0.0000 0.0000 0.0000 0.0000 0.0000 0.0000 0.0001 0.0000 0.0000 0.0000 0.0000 0.0001 0.0000 0.0000 0.0001 0.0000 0.0000 0.0000 0.0000 0.0000 0.0000
0.0001 0.0001 0.0001 0.0001 0.0002 0.0001 0.0001 0.0001 0.0002 0.0001 0.0001 0.0001 0.0001 0.0001 0.0001 0.0003 0.0001 0.0005 0.0002 0.0001 0.0001 0.0001 0.0002 0.0001 0.0001 0.0001 0.0002 0.0001 0.0001 0.0001 0.0001 0.0002 0.0002 0.0001 0.0001 0.0002 0.0002 0.0001 0.0001 0.0001 0.0001 0.0001 0.0001 0.0001 0.0002 0.0001 0.0001 0.0001 0.0001 0.0002 0.0001 0.0001 0.0003 0.0001 0.0001 0.0001 0.0001 0.0001 0.0001
0.0004 0.0003 0.0004 0.0005 0.0006 0.0004 0.0003 0.0004 0.0005 0.0003 0.0002 0.0003 0.0004 0.0004 0.0005 0.0008 0.0003 0.0011 0.0005 0.0003 0.0003 0.0003 0.0007 0.0004 0.0004 0.0003 0.0004 0.0003 0.0005 0.0004 0.0003 0.0005 0.0006 0.0003 0.0004 0.0008 0.0005 0.0002 0.0002 0.0002 0.0004 0.0004 0.0004 0.0004 0.0006 0.0004 0.0004 0.0002 0.0003 0.0007 0.0002 0.0003 0.0008 0.0004 0.0003 0.0003 0.0003 0.0003 0.0002
0.0010 0.0007 0.0009 0.0012 0.0016 0.0010 0.0007 0.0013 0.0010 0.0008 0.0006 0.0007 0.0009 0.0009 0.0011 0.0020 0.0009 0.0029 0.0012 0.0007 0.0007 0.0008 0.0017 0.0012 0.0009 0.0007 0.0013 0.0009 0.0011 0.0009 0.0009 0.0012 0.0012 0.0007 0.0010 0.0018 0.0015 0.0006 0.0006 0.0006 0.0009 0.0010 0.0011 0.0010 0.0016 0.0011 0.0010 0.0006 0.0007 0.0015 0.0006 0.0008 0.0021 0.0011 0.0007 0.0007 0.0008 0.0007 0.0006
0.0019 0.0014 0.0018 0.0024 0.0033 0.0018 0.0018 0.0023 0.0017 0.0015 0.0011 0.0013 0.0016 0.0018 0.0022 0.0036 0.0016 0.0048 0.0023 0.0014 0.0014 0.0015 0.0031 0.0022 0.0018 0.0014 0.0022 0.0017 0.0021 0.0019 0.0017 0.0022 0.0030 0.0018 0.0022 0.0031 0.0028 0.0011 0.0011 0.0011 0.0017 0.0020 0.0022 0.0019 0.0028 0.0020 0.0019 0.0012 0.0013 0.0028 0.0012 0.0015 0.0036 0.0020 0.0013 0.0014 0.0016 0.0013 0.0012
0.0026 0.0020 0.0024 0.0037 0.0040 0.0025 0.0024 0.0029 0.0024 0.0021 0.0016 0.0020 0.0024 0.0028 0.0031 0.0041 0.0022 0.0051 0.0030 0.0020 0.0022 0.0021 0.0037 0.0032 0.0026 0.0021 0.0032 0.0023 0.0030 0.0026 0.0024 0.0031 0.0039 0.0027 0.0030 0.0041 0.0034 0.0016 0.0016 0.0016 0.0025 0.0031 0.0034 0.0029 0.0037 0.0029 0.0028 0.0017 0.0018 0.0034 0.0018 0.0021 0.0040 0.0031 0.0019 0.0021 0.0024 0.0020 0.0018
0.0034 0.0026 0.0036 0.0043 0.0059 0.0031 0.0026 0.0035 0.0033 0.0026 0.0020 0.0024 0.0030 0.0035 0.0039 0.0054 0.0028 0.0072 0.0039 0.0025 0.0028 0.0028 0.0048 0.0048 0.0033 0.0027 0.0042 0.0029 0.0038 0.0035 0.0031 0.0038 0.0055 0.0027 0.0038 0.0046 0.0055 0.0020 0.0021 0.0021 0.0031 0.0038 0.0042 0.0036 0.0048 0.0037 0.0035 0.0021 0.0023 0.0046 0.0022 0.0028 0.0057 0.0042 0.0024 0.0027 0.0031 0.0023 0.0022
0.0038 0.0029 0.0033 0.0052 0.0060 0.0033 0.0031 0.0039 0.0039 0.0027 0.0023 0.0026 0.0034 0.0038 0.0045 0.0058 0.0031 0.0074 0.0049 0.0027 0.0030 0.0033 0.0053 0.0050 0.0038 0.0030 0.0048 0.0036 0.0044 0.0037 0.0036 0.0043 0.0058 0.0032 0.0037 0.0048 0.0052 0.0022 0.0023 0.0024 0.0034 0.0042 0.0044 0.0040 0.0053 0.0044 0.0042 0.0024 0.0025 0.0052 0.0024 0.0032 0.0060 0.0049 0.0026 0.0032 0.0035 0.0025 0.0025
0.0040 0.0028 0.0034 0.0054 0.0065 0.0033 0.0034 0.0043 0.0036 0.0028 0.0023 0.0028 0.0038 0.0039 0.0047 0.0059 0.0031 0.0077 0.0052 0.0028 0.0031 0.0032 0.0052 0.0049 0.0037 0.0030 0.0047 0.0038 0.0045 0.0039 0.0038 0.0042 0.0056 0.0040 0.0042 0.0047 0.0053 0.0022 0.0023 0.0024 0.0036 0.0043 0.0045 0.0041 0.0052 0.0045 0.0044 0.0026 0.0027 0.0052 0.0025 0.0032 0.0053 0.0047 0.0027 0.0032 0.0037 0.0025 0.0024
0.0041 0.0029 0.0033 0.0059 0.0065 0.0032 0.0028 0.0042 0.0033 0.0028 0.0024 0.0029 0.0038 0.0041 0.0045 0.0058 0.0033 0.0072 0.0046 0.0028 0.0031 0.0030 0.0052 0.0051 0.0038 0.0031 0.0049 0.0037 0.0044 0.0038 0.0037 0.0039 0.0060 0.0043 0.0037 0.0045 0.0049 0.0023 0.0023 0.0024 0.0038 0.0044 0.0048 0.0040 0.0052 0.0045 0.0042 0.0025 0.0026 0.0048 0.0025 0.0031 0.0059 0.0049 0.0027 0.0031 0.0038 0.0025 0.0024
0.0042 0.0029 0.0033 0.0047 0.0061 0.0031 0.0025 0.0042 0.0032 0.0026 0.0023 0.0027 0.0035 0.0040 0.0043 0.0056 0.0030 0.0074 0.0045 0.0027 0.0029 0.0032 0.0056 0.0049 0.0040 0.0029 0.0051 0.0035 0.0043 0.0039 0.0035 0.0040 0.0055 0.0034 0.0034 0.0039 0.0042 0.0022 0.0022 0.0023 0.0034 0.0044 0.0047 0.0039 0.0049 0.0045 0.0041 0.0024 0.0026 0.0045 0.0024 0.0030 0.0057 0.0052 0.0027 0.0031 0.0040 0.0024 0.0024
0.0041 0.0028 0.0034 0.0055 0.0065 0.0030 0.0030 0.0053 0.0029 0.0025 0.0021 0.0025 0.0036 0.0037 0.0042 0.0047 0.0027 0.0065 0.0046 0.0026 0.0029 0.0030 0.0049 0.0051 0.0037 0.0030 0.0049 0.0037 0.0043 0.0038 0.0034 0.0038 0.0070 0.0040 0.0032 0.0038 0.0037 0.0022 0.0022 0.0022 0.0033 0.0041 0.0043 0.0036 0.0042 0.0040 0.0039 0.0023 0.0023 0.0048 0.0022 0.0029 0.0052 0.0053 0.0027 0.0030 0.0040 0.0023 0.0022
0.0037 0.0026 0.0030 0.0055 0.0069 0.0029 0.0025 0.0054 0.0029 0.0023 0.0019 0.0024 0.0036 0.0037 0.0042 0.0046 0.0028 0.0066 0.0042 0.0025 0.0028 0.0029 0.0048 0.0050 0.0035 0.0030 0.0047 0.0037 0.0042 0.0035 0.0034 0.0035 0.0061 0.0042 0.0031 0.0035 0.0041 0.0021 0.0020 0.0021 0.0033 0.0042 0.0042 0.0037 0.0043 0.0040 0.0037 0.0022 0.0023 0.0046 0.0022 0.0028 0.0049 0.0050 0.0025 0.0030 0.0037 0.0022 0.0022
0.0034 0.0024 0.0031 0.0046 0.0052 0.0027 0.0028 0.0043 0.0044 0.0022 0.0020 0.0023 0.0036 0.0033 0.0038 0.0044 0.0026 0.0057 0.0038 0.0024 0.0026 0.0028 0.0045 0.0039 0.0034 0.0026 0.0042 0.0036 0.0041 0.0032 0.0035 0.0034 0.0047 0.0037 0.0034 0.0032 0.0038 0.0021 0.0020 0.0020 0.0036 0.0039 0.0039 0.0034 0.0041 0.0036 0.0033 0.0021 0.0021 0.0041 0.0021 0.0027 0.0046 0.0040 0.0024 0.0028 0.0032 0.0020 0.0022
0.0033 0.0022 0.0027 0.0039 0.0050 0.0025 0.0030 0.0040 0.0049 0.0021 0.0019 0.0021 0.0035 0.0032 0.0037 0.0047 0.0025 0.0057 0.0036 0.0023 0.0024 0.0028 0.0042 0.0033 0.0031 0.0024 0.0039 0.0034 0.0034 0.0031 0.0032 0.0031 0.0044 0.0035 0.0031 0.0031 0.0040 0.0020 0.0018 0.0019 0.0033 0.0037 0.0037 0.0032 0.0041 0.0034 0.0032 0.0019 0.0021 0.0043 0.0020 0.0026 0.0047 0.0034 0.0021 0.0026 0.0028 0.0019 0.0020
0.0033 0.0022 0.0025 0.0036 0.0048 0.0023 0.0029 0.0047 0.0042 0.0020 0.0018 0.0021 0.0038 0.0030 0.0033 0.0039 0.0023 0.0049 0.0039 0.0022 0.0023 0.0029 0.0042 0.0031 0.0029 0.0023 0.0036 0.0030 0.0033 0.0029 0.0028 0.0029 0.0044 0.0039 0.0031 0.0029 0.0040 0.0018 0.0017 0.0018 0.0031 0.0037 0.0036 0.0031 0.0035 0.0035 0.0033 0.0019 0.0020 0.0040 0.0018 0.0025 0.0041 0.0032 0.0020 0.0025 0.0029 0.0018 0.0018
0.0032 0.0021 0.0023 0.0036 0.0045 0.0022 0.0029 0.0036 0.0049 0.0019 0.0017 0.0021 0.0032 0.0028 0.0031 0.0036 0.0022 0.0048 0.0040 0.0020 0.0022 0.0025 0.0042 0.0031 0.0027 0.0022 0.0033 0.0026 0.0034 0.0029 0.0027 0.0027 0.0041 0.0038 0.0030 0.0027 0.0046 0.0018 0.0017 0.0017 0.0031 0.0034 0.0035 0.0028 0.0034 0.0032 0.0032 0.0018 0.0020 0.0036 0.0017 0.0021 0.0040 0.0032 0.0020 0.0023 0.0027 0.0017 0.0017
0.0028 0.0020 0.0023 0.0033 0.0048 0.0020 0.0026 0.0033 0.0046 0.0017 0.0015 0.0018 0.0029 0.0027 0.0029 0.0035 0.0021 0.0045 0.0031 0.0019 0.0020 0.0021 0.0036 0.0036 0.0026 0.0021 0.0033 0.0025 0.0028 0.0027 0.0025 0.0025 0.0036 0.0025 0.0032 0.0025 0.0055 0.0016 0.0015 0.0016 0.0027 0.0031 0.0032 0.0027 0.0033 0.0031 0.0029 0.0016 0.0018 0.0031 0.0017 0.0020 0.0037 0.0033 0.0018 0.0022 0.0026 0.0016 0.0016
0.0026 0.0018 0.0020 0.0029 0.0039 0.0020 0.0018 0.0032 0.0024 0.0017 0.0015 0.0017 0.0026 0.0026 0.0029 0.0035 0.0020 0.0043 0.0029 0.0017 0.0020 0.0019 0.0035 0.0035 0.0024 0.0020 0.0032 0.0025 0.0028 0.0024 0.0025 0.0024 0.0032 0.0022 0.0023 0.0024 0.0029 0.0015 0.0015 0.0015 0.0023 0.0029 0.0030 0.0025 0.0031 0.0029 0.0027 0.0016 0.0017 0.0032 0.0016 0.0019 0.0035 0.0031 0.0017 0.0022 0.0025 0.0015 0.0016
0.0027 0.0017 0.0023 0.0025 0.0040 0.0018 0.0017 0.0029 0.0030 0.0015 0.0014 0.0016 0.0024 0.0024 0.0026 0.0031 0.0018 0.0040 0.0028 0.0017 0.0018 0.0018 0.0031 0.0028 0.0024 0.0018 0.0027 0.0025 0.0028 0.0025 0.0025 0.0023 0.0036 0.0021 0.0025 0.0022 0.0033 0.0014 0.0014 0.0014 0.0023 0.0028 0.0027 0.0024 0.0029 0.0026 0.0025 0.0015 0.0015 0.0028 0.0015 0.0017 0.0033 0.0027 0.0016 0.0021 0.0023 0.0014 0.0016
0.0024 0.0016 0.0019 0.0024 0.0036 0.0018 0.0015 0.0025 0.0023 0.0014 0.0013 0.0015 0.0021 0.0024 0.0025 0.0029 0.0017 0.0040 0.0029 0.0016 0.0017 0.0019 0.0030 0.0028 0.0022 0.0018 0.0027 0.0022 0.0024 0.0022 0.0023 0.0021 0.0030 0.0019 0.0021 0.0021 0.0026 0.0013 0.0013 0.0013 0.0021 0.0025 0.0027 0.0022 0.0027 0.0025 0.0025 0.0014 0.0015 0.0027 0.0014 0.0017 0.0033 0.0028 0.0015 0.0019 0.0022 0.0013 0.0014
0.0023 0.0016 0.0019 0.0024 0.0031 0.0016 0.0014 0.0022 0.0021 0.0014 0.0013 0.0014 0.0021 0.0023 0.0024 0.0026 0.0016 0.0035 0.0026 0.0015 0.0016 0.0017 0.0029 0.0026 0.0020 0.0017 0.0025 0.0019 0.0023 0.0022 0.0020 0.0020 0.0029 0.0017 0.0019 0.0019 0.0025 0.0012 0.0012 0.0012 0.0020 0.0025 0.0025 0.0021 0.0025 0.0023 0.0023 0.0014 0.0014 0.0025 0.0013 0.0016 0.0028 0.0028 0.0015 0.0018 0.0022 0.0012 0.0014
0.0022 0.0015 0.0019 0.0023 0.0031 0.0015 0.0014 0.0023 0.0020 0.0013 0.0011 0.0014 0.0020 0.0021 0.0022 0.0025 0.0014 0.0035 0.0025 0.0014 0.0015 0.0016 0.0025 0.0026 0.0020 0.0015 0.0024 0.0019 0.0023 0.0021 0.0018 0.0019 0.0031 0.0017 0.0019 0.0018 0.0024 0.0012 0.0011 0.0012 0.0019 0.0023 0.0024 0.0020 0.0023 0.0022 0.0021 0.0012 0.0013 0.0025 0.0012 0.0015 0.0026 0.0027 0.0014 0.0017 0.0022 0.0011 0.0013
